Temperature Strain
308.441	0.153653
308.443	0.153653
308.442	0.153608
308.44	0.153522
308.435	0.153385
308.423	0.153213
308.405	0.153007
308.376	0.152791
308.343	0.152612
308.312	0.15236
308.286	0.152162
308.264	0.151981
308.245	0.151836
308.231	0.151714
308.221	0.151659
308.212	0.151611
308.204	0.151583
308.197	0.15157
308.19	0.151564
308.181	0.151562
308.17	0.151542
308.157	0.15152
308.143	0.151488
308.13	0.15146
308.115	0.151451
308.097	0.151468
308.077	0.151506
308.055	0.151606
308.033	0.151692
308.012	0.151821
307.995	0.151971
307.978	0.152138
307.963	0.152322
307.947	0.152526
307.927	0.152738
307.898	0.152964
307.867	0.153192
307.829	0.15339
307.789	0.153545
307.747	0.153625
307.7	0.153621
307.651	0.153521
307.609	0.153316
307.57	0.15301
307.532	0.152628
307.492	0.15218
307.452	0.151701
307.41	0.151116
307.368	0.15058
307.325	0.150044
307.285	0.149552
307.247	0.14919
307.21	0.148793
307.168	0.148422
307.121	0.148097
307.077	0.147852
307.036	0.147662
306.997	0.147536
306.96	0.147481
306.924	0.147475
306.889	0.147517
306.854	0.147608
306.82	0.147716
306.782	0.147829
306.741	0.147923
306.698	0.147995
306.653	0.147818
306.605	0.147818
306.558	0.147773
306.511	0.147702
306.462	0.147634
306.41	0.147558
306.358	0.147474
306.307	0.147399
306.254	0.147301
306.203	0.147217
306.148	0.147096
306.092	0.146963
306.034	0.146838
305.98	0.14673
305.932	0.146611
305.891	0.146519
305.857	0.146421
305.827	0.146338
305.793	0.14625
305.755	0.146258
305.71	0.146178
305.655	0.146159
305.593	0.146163
305.525	0.14624
305.454	0.146378
305.379	0.146518
305.298	0.146635
305.217	0.146752
305.133	0.146884
305.048	0.14695
304.961	0.146995
304.876	0.14703
304.796	0.147033
304.717	0.146991
304.641	0.146894
304.564	0.146752
304.489	0.146557
304.414	0.146322
304.342	0.145958
304.268	0.145749
304.196	0.145561
304.125	0.145408
304.054	0.145307
303.984	0.145304
303.914	0.145265
303.84	0.145252
303.768	0.145253
303.695	0.145246
303.621	0.145193
303.551	0.145154
303.487	0.145101
303.421	0.145039
303.351	0.145002
303.275	0.144978
303.19	0.144988
303.096	0.145036
302.997	0.14511
302.896	0.144958
302.798	0.145075
302.701	0.145165
302.606	0.145274
302.512	0.145367
302.424	0.145495
302.338	0.145583
302.252	0.145633
302.164	0.145618
302.075	0.145544
301.982	0.145396
301.886	0.145196
301.787	0.144931
301.688	0.14461
301.585	0.144251
301.482	0.143878
301.381	0.143541
301.279	0.143232
301.18	0.142982
301.08	0.142709
300.978	0.142624
300.873	0.142571
300.77	0.142561
300.67	0.142572
300.569	0.1427
300.467	0.142766
300.367	0.142832
300.27	0.142879
300.173	0.142901
300.078	0.142859
299.983	0.142781
299.886	0.142679
299.788	0.142551
299.69	0.142422
299.594	0.142262
299.497	0.142108
299.4	0.141968
299.302	0.141823
299.207	0.141685
299.117	0.141589
299.031	0.141505
298.948	0.141454
298.867	0.141444
298.791	0.141722
298.72	0.141807
298.65	0.14193
298.581	0.14206
298.514	0.142158
298.449	0.142216
298.379	0.142252
298.305	0.142237
298.228	0.142184
298.148	0.142101
298.064	0.141993
297.978	0.141874
297.887	0.141737
297.796	0.141536
297.704	0.141417
297.609	0.141275
297.509	0.1412
297.411	0.141154
297.311	0.141154
297.212	0.141102
297.115	0.141205
297.019	0.141275
296.928	0.141351
296.839	0.141368
296.751	0.141326
296.663	0.141244
296.576	0.141139
296.491	0.141008
296.41	0.140844
296.334	0.140651
296.263	0.140448
296.195	0.140227
296.127	0.140006
296.054	0.139816
295.977	0.139697
295.895	0.139599
295.811	0.139564
295.726	0.139596
295.639	0.139736
295.548	0.139797
295.455	0.139878
295.363	0.139941
295.273	0.139965
295.184	0.139945
295.094	0.139909
295.004	0.139852
294.915	0.13978
294.828	0.13972
294.74	0.139664
294.652	0.139619
294.559	0.139603
294.467	0.139637
294.376	0.139666
294.287	0.139711
294.196	0.139732
294.105	0.139736
294.013	0.139721
293.92	0.139928
293.825	0.139853
293.728	0.139774
293.629	0.139644
293.531	0.13947
293.432	0.139228
293.332	0.138939
293.23	0.138617
293.126	0.138276
293.018	0.137933
292.906	0.137595
292.792	0.137257
292.679	0.136947
292.567	0.136668
292.45	0.136428
292.336	0.136226
292.221	0.13607
292.106	0.135996
291.984	0.135987
291.861	0.136113
291.737	0.136207
291.617	0.136376
291.497	0.136576
291.377	0.136812
291.258	0.137038
291.138	0.137248
291.019	0.137447
290.901	0.137613
290.784	0.137758
290.668	0.137876
290.556	0.137959
290.441	0.137984
290.325	0.137958
290.21	0.13785
290.097	0.137668
289.982	0.137466
289.868	0.137199
289.756	0.136911
289.647	0.136617
289.538	0.136272
289.428	0.135902
289.316	0.135525
289.199	0.135146
289.08	0.134758
288.958	0.134395
288.835	0.134059
288.71	0.133776
288.586	0.133562
288.46	0.133426
288.332	0.133358
288.205	0.133347
288.079	0.133378
287.95	0.133424
287.822	0.133516
287.694	0.133633
287.567	0.133767
287.44	0.133974
287.315	0.134142
287.191	0.134315
287.063	0.134429
286.932	0.134501
286.798	0.134516
286.663	0.134441
286.53	0.134263
286.398	0.134013
286.267	0.133695
286.138	0.13331
286.01	0.132892
285.886	0.132445
285.761	0.131982
285.638	0.131455
285.515	0.130968
285.395	0.13054
285.275	0.130157
285.156	0.129844
285.038	0.129621
284.92	0.12948
284.805	0.129406
284.69	0.129426
284.573	0.129511
284.454	0.129633
284.337	0.12983
284.222	0.130001
284.11	0.130164
284	0.130328
283.892	0.130491
283.784	0.130646
283.674	0.130804
283.565	0.130948
283.456	0.131063
283.347	0.131144
283.237	0.131164
283.124	0.131141
283.011	0.131092
282.895	0.130981
282.776	0.130846
282.656	0.130677
282.535	0.13049
282.415	0.130254
282.296	0.129987
282.18	0.12969
282.063	0.129363
281.945	0.129036
281.828	0.128734
281.709	0.128456
281.589	0.128208
281.469	0.128005
281.349	0.12787
281.231	0.127779
281.113	0.127671
280.994	0.127667
280.873	0.127693
280.748	0.127757
280.621	0.12786
280.496	0.12798
280.371	0.128115
280.248	0.128247
280.13	0.128326
280.014	0.12836
279.899	0.128346
279.787	0.128225
279.678	0.128017
279.569	0.127745
279.461	0.127395
279.356	0.127007
279.25	0.126599
279.142	0.126171
279.038	0.125646
278.935	0.125257
278.834	0.124914
278.734	0.124639
278.634	0.124468
278.534	0.124363
278.431	0.124383
278.328	0.12451
278.227	0.124668
278.128	0.124865
278.028	0.125078
277.923	0.125275
277.816	0.125477
277.704	0.125694
277.589	0.125879
277.474	0.126014
277.358	0.126098
277.24	0.12613
277.12	0.126085
277	0.126016
276.875	0.125862
276.747	0.125668
276.62	0.125451
276.492	0.125226
276.365	0.125016
276.237	0.124832
276.108	0.124635
275.979	0.124434
275.848	0.124207
275.713	0.12396
275.573	0.123682
275.428	0.1234
275.281	0.123097
275.129	0.122774
274.976	0.122464
274.821	0.122192
274.666	0.121939
274.509	0.121715
274.355	0.121528
274.201	0.12141
274.054	0.121348
273.909	0.121371
273.769	0.12149
273.631	0.121761
273.494	0.122066
273.359	0.122381
273.225	0.122689
273.094	0.122959
272.964	0.123181
272.836	0.123339
272.71	0.123412
272.585	0.123427
272.46	0.123363
272.335	0.123227
272.213	0.123043
272.092	0.122789
271.97	0.122491
271.848	0.122155
271.725	0.121818
271.606	0.121462
271.488	0.121104
271.37	0.120772
271.25	0.120482
271.127	0.120203
271.002	0.119984
270.873	0.119775
270.744	0.119566
270.613	0.119383
270.481	0.119213
270.35	0.119065
270.218	0.118943
270.086	0.11887
269.955	0.118825
269.823	0.118836
269.69	0.11886
269.555	0.118888
269.418	0.118948
269.282	0.118974
269.145	0.118989
269.008	0.119023
268.874	0.11906
268.743	0.119069
268.614	0.119126
268.487	0.119091
268.36	0.119048
268.235	0.118956
268.113	0.118832
267.993	0.11868
267.875	0.118496
267.755	0.118282
267.634	0.118053
267.514	0.117819
267.394	0.117571
267.274	0.11733
267.15	0.117097
267.027	0.116836
266.907	0.116618
266.788	0.116432
266.67	0.11628
266.551	0.116177
266.433	0.116211
266.317	0.11613
266.201	0.116032
266.088	0.115898
265.976	0.11573
265.864	0.115529
265.753	0.115269
265.644	0.114995
265.539	0.114695
265.438	0.11441
265.34	0.114143
265.241	0.113899
265.143	0.113674
265.043	0.113485
264.942	0.113365
264.839	0.113268
264.739	0.113229
264.639	0.113254
264.54	0.113348
264.439	0.113465
264.335	0.113663
264.228	0.11388
264.116	0.114098
264.001	0.114297
263.884	0.114459
263.767	0.114579
263.65	0.114651
263.535	0.114664
263.418	0.114636
263.298	0.11455
263.172	0.114418
263.043	0.114258
262.911	0.114077
262.783	0.113875
262.654	0.113714
262.526	0.113571
262.402	0.113454
262.277	0.113386
262.154	0.113373
262.032	0.113354
261.913	0.113344
261.793	0.113334
261.675	0.113289
261.555	0.113192
261.436	0.113058
261.319	0.112889
261.203	0.112694
261.089	0.112492
260.977	0.112276
260.864	0.112052
260.747	0.111831
260.623	0.111584
260.493	0.111383
260.359	0.111146
260.22	0.110938
260.076	0.110764
259.923	0.110639
259.765	0.110554
259.605	0.110482
259.446	0.110433
259.289	0.110376
259.139	0.1103
258.989	0.110186
258.841	0.110071
258.696	0.109939
258.554	0.109796
258.414	0.109653
258.275	0.109509
258.141	0.109371
258.01	0.109221
257.882	0.109087
257.755	0.10896
257.627	0.10887
257.499	0.10877
257.372	0.108685
257.244	0.108633
257.116	0.108543
256.986	0.108516
256.856	0.108481
256.727	0.108414
256.604	0.10829
256.485	0.108179
256.368	0.108037
256.252	0.107886
256.135	0.107724
256.016	0.107573
255.896	0.107412
255.774	0.107255
255.65	0.107189
255.524	0.107037
255.396	0.106923
255.261	0.106824
255.124	0.10677
254.984	0.106747
254.84	0.106765
254.691	0.106837
254.543	0.106884
254.396	0.106904
254.251	0.106893
254.104	0.106842
253.953	0.106719
253.803	0.106613
253.652	0.106509
253.504	0.106407
253.357	0.106293
253.216	0.106204
253.077	0.106119
252.94	0.106059
252.8	0.105986
252.659	0.105909
252.514	0.105863
252.366	0.105836
252.219	0.105858
252.075	0.105864
251.933	0.105844
251.792	0.10584
251.654	0.105791
251.516	0.105695
251.379	0.105553
251.24	0.105345
251.099	0.10508
250.956	0.104778
250.811	0.10444
250.667	0.104089
250.524	0.103737
250.385	0.103403
250.254	0.102997
250.125	0.102696
249.998	0.102457
249.876	0.102274
249.758	0.102177
249.647	0.102214
249.542	0.102273
249.438	0.102417
249.331	0.102561
249.219	0.102706
249.103	0.102841
248.984	0.102945
248.867	0.10299
248.751	0.103012
248.63	0.102977
248.505	0.102871
248.377	0.102711
248.25	0.102498
248.123	0.102243
247.996	0.101803
247.868	0.101488
247.737	0.101163
247.602	0.100843
247.466	0.100545
247.331	0.100287
247.197	0.100057
247.065	0.0998206
246.931	0.0996472
246.798	0.0994695
246.661	0.0992913
246.522	0.0990881
246.383	0.0988688
246.246	0.0986434
246.111	0.0984145
245.978	0.0981911
245.849	0.097984
245.719	0.0977873
245.585	0.0976013
245.451	0.0973098
245.32	0.0971882
245.192	0.0971188
245.066	0.0970958
244.942	0.0971259
244.821	0.0972186
244.705	0.0973472
244.59	0.097506
244.473	0.0976331
244.357	0.0977609
244.243	0.0978786
244.133	0.0979553
244.023	0.0980096
243.914	0.098012
243.804	0.0979869
243.694	0.0979261
243.582	0.0978583
243.469	0.0977478
243.355	0.0976325
243.24	0.0974899
243.127	0.0973684
243.015	0.0972178
242.902	0.097079
242.786	0.096968
242.665	0.0967804
242.54	0.0967311
242.413	0.096661
242.283	0.0965854
242.151	0.0964879
242.017	0.0963537
241.885	0.0961959
241.753	0.0960213
241.621	0.0958446
241.491	0.0956833
241.363	0.0955327
241.236	0.0953818
241.11	0.0953554
240.984	0.095329
240.859	0.095344
240.734	0.0954158
240.605	0.0955399
240.477	0.0956766
240.349	0.0958065
240.221	0.0958936
240.093	0.0959576
239.968	0.0959864
239.844	0.095929
239.717	0.0957915
239.593	0.0955394
239.463	0.0952293
239.328	0.0948699
239.196	0.0944777
239.065	0.0940661
238.932	0.0936372
238.797	0.0932025
238.659	0.0928036
238.519	0.0924321
238.38	0.0920989
238.242	0.0918209
238.107	0.0915851
237.97	0.0914088
237.833	0.0912934
237.697	0.0913261
237.563	0.0913552
237.433	0.0914072
237.304	0.0915129
237.18	0.0916138
237.057	0.0916571
236.935	0.0917267
236.809	0.0917771
236.683	0.0917947
236.555	0.0917874
236.427	0.091745
236.303	0.0914998
236.184	0.0914269
236.067	0.0913
235.947	0.0911735
235.822	0.0910568
235.693	0.0909616
235.558	0.0908879
235.423	0.0908346
235.289	0.0909384
235.157	0.0909064
235.026	0.090861
234.894	0.0907966
234.762	0.0906948
234.63	0.090543
234.497	0.0903673
234.363	0.0901719
234.229	0.0899569
234.096	0.0897407
233.967	0.0895413
233.838	0.0893683
233.711	0.0893219
233.584	0.089215
233.456	0.0891892
233.329	0.0892372
233.203	0.0893325
233.078	0.0894807
232.955	0.0896503
232.834	0.089965
232.714	0.0901541
232.592	0.09029
232.469	0.0903751
232.349	0.0903762
232.229	0.0902847
232.113	0.0901019
231.997	0.089844
231.881	0.0895307
231.761	0.0891607
231.64	0.0887479
231.518	0.0882176
231.395	0.0877792
231.273	0.0873505
231.153	0.0869502
231.034	0.0865958
230.912	0.0862953
230.788	0.086052
230.664	0.0858627
230.54	0.0857508
230.413	0.0856647
230.285	0.0856611
230.157	0.0856873
230.025	0.0857206
229.895	0.0857619
229.765	0.0857703
229.638	0.0858008
229.511	0.085815
229.385	0.0858263
229.258	0.0858629
229.135	0.0859328
229.012	0.0859928
228.889	0.0860596
228.767	0.086115
228.645	0.0861469
228.523	0.0861664
228.398	0.0860933
228.271	0.0859667
228.141	0.0857777
228.009	0.0854994
227.878	0.0851346
227.747	0.0847199
227.614	0.0842748
227.48	0.0838281
227.347	0.0834019
227.214	0.0830065
227.079	0.0826618
226.945	0.0823894
226.809	0.0821852
226.672	0.0820657
226.534	0.0819872
226.394	0.0819783
226.26	0.0820159
226.129	0.0820873
226.005	0.0821908
225.881	0.0822829
225.756	0.0823724
225.631	0.0824387
225.508	0.0824803
225.384	0.0825078
225.258	0.0825219
225.13	0.0824796
225.003	0.0823967
224.877	0.0822685
224.75	0.0821536
224.622	0.0820166
224.492	0.0818605
224.363	0.0816969
224.234	0.081539
224.104	0.0813858
223.975	0.0812427
223.847	0.0811109
223.719	0.0809892
223.589	0.0810295
223.455	0.0808672
223.319	0.0807313
223.182	0.0805734
223.046	0.0803914
222.913	0.0801791
222.779	0.0798239
222.644	0.0795741
222.507	0.0793207
222.369	0.0790792
222.227	0.0788735
222.087	0.0786835
221.946	0.0785505
221.804	0.0784417
221.661	0.0783522
221.518	0.0782349
221.373	0.0781682
221.224	0.0781091
221.074	0.0780514
220.923	0.0780005
220.769	0.0778692
220.612	0.0778342
220.455	0.0777525
220.3	0.0776437
220.149	0.0775217
220.002	0.0773904
219.859	0.077279
219.719	0.077173
219.58	0.0770853
219.443	0.0770238
219.309	0.0769555
219.178	0.0769012
219.048	0.076848
218.919	0.0767943
218.79	0.0767307
218.658	0.0766679
218.523	0.0766086
218.388	0.0765415
218.253	0.0765581
218.118	0.0764277
217.984	0.0763253
217.849	0.0762051
217.714	0.0760901
217.576	0.0759233
217.438	0.0757779
217.3	0.0756191
217.162	0.0754468
217.025	0.0752617
216.89	0.075076
216.755	0.0748847
216.62	0.0747011
216.486	0.0745423
216.352	0.0744044
216.216	0.0742693
216.08	0.0741598
215.943	0.0738934
215.804	0.0737936
215.661	0.0736241
215.516	0.0734842
215.372	0.0733464
215.228	0.0732307
215.083	0.0731273
214.939	0.0730549
214.796	0.0729854
214.653	0.0729279
214.511	0.0728685
214.368	0.072814
214.223	0.0727651
214.077	0.0727011
213.931	0.0726175
213.787	0.0725036
213.644	0.0723651
213.499	0.0721875
213.353	0.0720072
213.206	0.0717184
213.061	0.0714352
212.92	0.0711241
212.781	0.0708459
212.642	0.0705798
212.503	0.0703439
212.363	0.0701374
212.224	0.0699649
212.085	0.0698204
211.947	0.0697005
211.812	0.0695966
211.68	0.0695202
211.547	0.0694472
211.417	0.0693626
211.287	0.0693008
211.158	0.0692451
211.03	0.0691767
210.903	0.0690622
210.78	0.0689186
210.658	0.0687864
210.541	0.0685857
210.425	0.0683685
210.313	0.0681212
210.202	0.0679046
210.091	0.0676575
209.977	0.0674366
209.86	0.0672599
209.739	0.0671272
209.616	0.0670436
209.49	0.067006
209.364	0.0670153
209.235	0.067068
209.105	0.0672816
208.971	0.0674132
208.835	0.0675753
208.697	0.0676031
208.56	0.0677268
208.421	0.0678418
208.28	0.0679287
208.139	0.0680111
207.999	0.0681025
207.859	0.0682329
207.715	0.0683365
207.57	0.0684385
207.423	0.0685353
207.275	0.0685913
207.125	0.0685974
206.972	0.0685495
206.815	0.0684404
206.654	0.0682649
206.491	0.0680306
206.327	0.0677372
206.162	0.0673653
206.002	0.0669319
205.849	0.0664338
205.697	0.06589
205.548	0.0653578
205.404	0.0648327
205.264	0.0643481
205.127	0.0639199
204.989	0.0635767
204.853	0.0633173
204.717	0.0631296
204.583	0.0630078
204.449	0.0629629
204.315	0.0630078
204.182	0.063049
204.051	0.0630996
203.923	0.0631411
203.796	0.0631888
203.669	0.0631936
203.54	0.0631738
203.41	0.0631154
203.283	0.0630257
203.155	0.0628217
203.03	0.0626353
202.903	0.0624272
202.776	0.062189
202.651	0.0619359
202.529	0.0616913
202.407	0.061453
202.286	0.0614203
202.163	0.0612386
202.042	0.061123
201.919	0.0610114
201.794	0.0609161
201.667	0.060821
201.54	0.0607479
201.411	0.0606798
201.284	0.0606359
201.155	0.060588
201.027	0.0605489
200.9	0.0605132
200.775	0.0604737
200.65	0.0603774
200.524	0.0603785
200.4	0.0603732
200.273	0.0603775
200.143	0.0603939
200.013	0.0603874
199.88	0.0604226
199.744	0.0604527
199.608	0.060468
199.473	0.0604292
199.339	0.0603246
199.206	0.0601641
199.073	0.0599578
198.941	0.059709
198.812	0.0594437
198.684	0.0591736
198.558	0.0589274
198.433	0.0586024
198.312	0.0584018
198.195	0.058234
198.08	0.0581066
197.962	0.0580554
197.846	0.0580576
197.733	0.0581081
197.62	0.0581932
197.512	0.0582965
197.404	0.0584357
197.299	0.0585733
197.194	0.0586973
197.09	0.0587476
196.984	0.0587895
196.877	0.0587785
196.768	0.0587094
196.657	0.0585758
196.54	0.0583725
196.418	0.0581091
196.293	0.0577978
196.166	0.0574305
196.039	0.0570236
195.912	0.0565187
195.784	0.0560379
195.657	0.055694
195.53	0.0552496
195.401	0.0548504
195.272	0.0544918
195.143	0.0541698
195.015	0.0538741
194.886	0.0536058
194.756	0.0533742
194.624	0.0531722
194.491	0.0530003
194.356	0.0528726
194.223	0.0527833
194.087	0.0527262
193.95	0.0526995
193.814	0.0526999
193.678	0.0527107
193.542	0.0527398
193.407	0.0527835
193.271	0.0527854
193.133	0.0528571
192.995	0.0529519
192.858	0.0530513
192.72	0.0531661
192.58	0.0532616
192.44	0.0533291
192.3	0.0533684
192.16	0.0533566
192.019	0.0533103
191.878	0.053236
191.737	0.0531301
191.597	0.0530043
191.456	0.0528763
191.314	0.0527483
191.171	0.0526458
191.026	0.0525627
190.881	0.0524691
190.734	0.0524141
190.587	0.052382
190.442	0.0523602
190.297	0.0524143
190.155	0.0524489
190.016	0.0524863
189.878	0.0525677
189.741	0.0526263
189.604	0.0526499
189.466	0.0526449
189.327	0.0525742
189.186	0.0524599
189.044	0.0523023
188.902	0.0521013
188.76	0.0518492
188.615	0.051559
188.47	0.0512312
188.326	0.0508677
188.18	0.0504662
188.035	0.050222
187.889	0.049842
187.745	0.0495042
187.6	0.0492184
187.453	0.0490538
187.307	0.0488835
187.159	0.0487869
187.013	0.04874
186.868	0.0487281
186.725	0.0487495
186.581	0.048801
186.437	0.0488263
186.291	0.0488437
186.147	0.0488674
186.004	0.0488912
185.865	0.0489051
185.725	0.0489209
185.585	0.0489217
185.445	0.0488995
185.303	0.0489101
185.157	0.0488285
185.007	0.0488192
184.854	0.0486884
184.696	0.0485343
184.535	0.0483817
184.373	0.0481693
184.213	0.0479345
184.054	0.04768
183.896	0.0474222
183.739	0.0471451
183.584	0.0468884
183.429	0.0466544
183.277	0.0464386
183.123	0.0462591
182.967	0.0461219
182.812	0.0460008
182.657	0.0459091
182.502	0.0458308
182.346	0.0457406
182.19	0.0456823
182.034	0.0456487
181.877	0.0456398
181.718	0.045651
181.56	0.0457476
181.4	0.0458132
181.243	0.0458766
181.086	0.0459214
180.93	0.0459168
180.777	0.0458554
180.624	0.0457438
180.473	0.0455774
180.322	0.0453606
180.172	0.0450814
180.023	0.0447678
179.874	0.0444073
179.726	0.0440155
179.579	0.0436552
179.432	0.0433153
179.285	0.0430227
179.14	0.0427822
178.993	0.0426118
178.845	0.0425062
178.698	0.0424751
178.548	0.0425535
178.398	0.0426298
178.246	0.0427279
178.096	0.0428189
177.946	0.0428845
177.795	0.0429375
177.644	0.0429646
177.49	0.042933
177.338	0.042875
177.185	0.0427786
177.031	0.0426337
176.878	0.0424468
176.725	0.0422205
176.571	0.0419532
176.416	0.0416589
176.262	0.0412475
176.108	0.0408839
175.953	0.0405314
175.797	0.0401606
175.637	0.0398005
175.477	0.0394714
175.319	0.0391622
175.163	0.0388566
175.011	0.0385528
174.863	0.038214
174.715	0.0379061
174.568	0.0376019
174.421	0.0373266
174.271	0.0370862
174.118	0.0368917
173.962	0.036732
173.805	0.0366232
173.648	0.0366751
173.49	0.0366903
173.331	0.0367893
173.176	0.0369571
173.024	0.0372097
172.871	0.037379
172.716	0.0377612
172.558	0.038165
172.399	0.0385906
172.24	0.038989
172.081	0.0393209
171.922	0.0395831
