Temperature Strain
305.532	0.361112
305.528	0.361112
305.516	0.361092
305.505	0.361001
305.496	0.36085
305.487	0.360835
305.478	0.360586
305.47	0.360309
305.455	0.36003
305.44	0.35977
305.424	0.359536
305.408	0.35936
305.393	0.3593
305.375	0.359252
305.353	0.359269
305.327	0.35935
305.297	0.359485
305.269	0.359641
305.242	0.359837
305.22	0.360035
305.198	0.360252
305.174	0.360451
305.147	0.36062
305.114	0.360775
305.078	0.360854
305.038	0.36097
304.997	0.361041
304.962	0.361087
304.927	0.361095
304.89	0.361089
304.853	0.361083
304.815	0.361038
304.777	0.360962
304.742	0.360872
304.708	0.360748
304.674	0.360574
304.643	0.360455
304.608	0.360245
304.569	0.360015
304.529	0.359792
304.485	0.3596
304.438	0.359441
304.388	0.359321
304.333	0.359355
304.275	0.359304
304.212	0.359266
304.149	0.359207
304.086	0.359179
304.027	0.359141
303.971	0.359133
303.917	0.359076
303.872	0.359025
303.832	0.358963
303.798	0.358933
303.768	0.358907
303.732	0.358891
303.69	0.358861
303.638	0.358831
303.579	0.358782
303.513	0.358694
303.445	0.358594
303.382	0.358436
303.32	0.358432
303.262	0.358203
303.208	0.358016
303.156	0.357883
303.101	0.357877
303.042	0.357852
302.98	0.357885
302.918	0.357992
302.855	0.35817
302.786	0.358354
302.717	0.358564
302.643	0.358772
302.564	0.358995
302.487	0.359186
302.412	0.359368
302.338	0.35954
302.265	0.359653
302.192	0.359719
302.119	0.359699
302.045	0.359548
301.968	0.35947
301.89	0.359349
301.81	0.359198
301.729	0.359034
301.645	0.358837
301.558	0.358612
301.471	0.358357
301.381	0.358073
301.289	0.357784
301.194	0.357397
301.094	0.357004
300.994	0.356601
300.894	0.356192
300.794	0.355795
300.695	0.355396
300.599	0.355055
300.505	0.354815
300.414	0.354697
300.323	0.354884
300.226	0.354998
300.124	0.355196
300.021	0.355459
299.92	0.35576
299.822	0.355899
299.728	0.356294
299.637	0.356718
299.546	0.357052
299.457	0.357247
299.369	0.357323
299.278	0.357287
299.192	0.357158
299.11	0.356954
299.033	0.356658
298.962	0.356269
298.895	0.355825
298.826	0.35538
298.756	0.354925
298.681	0.354431
298.602	0.354023
298.52	0.353674
298.431	0.353393
298.337	0.353199
298.242	0.353157
298.144	0.353157
298.044	0.353232
297.941	0.353369
297.83	0.353558
297.715	0.353765
297.604	0.353984
297.501	0.354228
297.403	0.354481
297.307	0.354737
297.211	0.355019
297.113	0.355326
297.009	0.355605
296.899	0.355877
296.79	0.356101
296.681	0.356229
296.569	0.356302
296.457	0.356323
296.345	0.356307
296.233	0.356133
296.123	0.356021
296.019	0.355847
295.92	0.355615
295.82	0.355312
295.718	0.354929
295.615	0.354454
295.517	0.353952
295.422	0.353469
295.329	0.35298
295.237	0.352496
295.142	0.352027
295.046	0.351565
294.948	0.351159
294.853	0.350838
294.763	0.350596
294.678	0.350538
294.597	0.350584
294.521	0.350756
294.443	0.350847
294.364	0.351173
294.287	0.35148
294.21	0.351737
294.135	0.351932
294.063	0.352036
293.991	0.35204
293.921	0.351957
293.845	0.351776
293.764	0.351566
293.677	0.351295
293.589	0.350995
293.498	0.35067
293.407	0.350349
293.312	0.350027
293.212	0.349736
293.11	0.349507
293.004	0.349341
292.893	0.349245
292.783	0.349283
292.672	0.349265
292.559	0.34927
292.442	0.349291
292.325	0.349307
292.211	0.349338
292.096	0.349377
291.982	0.349437
291.865	0.349533
291.746	0.349671
291.622	0.34987
291.496	0.350074
291.371	0.350305
291.248	0.350558
291.134	0.350759
291.025	0.351027
290.915	0.351275
290.804	0.351444
290.688	0.351523
290.574	0.351342
290.463	0.351246
290.353	0.351058
290.25	0.350786
290.149	0.350473
290.048	0.350133
289.944	0.349679
289.841	0.349124
289.74	0.348591
289.643	0.348109
289.547	0.34769
289.456	0.34733
289.367	0.347023
289.277	0.346777
289.182	0.346621
289.083	0.346544
288.983	0.346564
288.886	0.346646
288.786	0.346787
288.683	0.347081
288.573	0.347352
288.457	0.347622
288.338	0.347893
288.22	0.348121
288.099	0.348292
287.971	0.348391
287.84	0.348422
287.707	0.348352
287.575	0.34828
287.446	0.348124
287.318	0.347958
287.193	0.347745
287.064	0.347523
286.932	0.347336
286.797	0.347068
286.658	0.346789
286.516	0.346531
286.369	0.346221
286.215	0.345986
286.061	0.345845
285.911	0.345732
285.764	0.345657
285.617	0.34559
285.468	0.345528
285.319	0.345499
285.177	0.345513
285.043	0.345533
284.918	0.345573
284.797	0.345639
284.677	0.345705
284.555	0.345762
284.436	0.345786
284.323	0.345762
284.214	0.345735
284.106	0.345707
284.003	0.345699
283.901	0.345675
283.797	0.345578
283.692	0.345438
283.592	0.345144
283.493	0.344777
283.394	0.344326
283.29	0.343786
283.177	0.34323
283.064	0.342666
282.951	0.342136
282.839	0.341629
282.727	0.34119
282.616	0.340824
282.505	0.340548
282.386	0.340341
282.262	0.340278
282.138	0.340366
282.014	0.340603
281.892	0.340952
281.769	0.341378
281.643	0.341848
281.515	0.342324
281.389	0.342775
281.263	0.343187
281.138	0.34351
281.014	0.343759
280.889	0.34389
280.759	0.343937
280.627	0.343922
280.493	0.343837
280.356	0.343689
280.215	0.343447
280.071	0.343128
279.929	0.34279
279.79	0.342367
279.654	0.341924
279.517	0.341474
279.386	0.341027
279.261	0.340612
279.138	0.340256
279.014	0.339869
278.891	0.339491
278.768	0.339113
278.646	0.338746
278.525	0.338381
278.405	0.338041
278.283	0.337746
278.158	0.337544
278.032	0.337425
277.908	0.337376
277.784	0.337421
277.665	0.337589
277.548	0.337846
277.431	0.338176
277.309	0.338568
277.187	0.339004
277.067	0.339444
276.954	0.33984
276.847	0.340204
276.736	0.340502
276.626	0.340703
276.515	0.340786
276.401	0.340775
276.284	0.340633
276.166	0.340385
276.048	0.340029
275.927	0.339603
275.804	0.339132
275.677	0.338651
275.549	0.338157
275.417	0.33768
275.282	0.337189
275.144	0.336744
275.004	0.336332
274.859	0.335961
274.708	0.335699
274.557	0.335526
274.41	0.335397
274.262	0.335422
274.115	0.335508
273.969	0.335632
273.828	0.335847
273.69	0.336044
273.551	0.336212
273.412	0.336363
273.271	0.336463
273.129	0.336518
272.985	0.336496
272.841	0.336417
272.699	0.336286
272.559	0.33612
272.42	0.335978
272.285	0.335826
272.154	0.335705
272.023	0.335684
271.896	0.335614
271.769	0.335545
271.639	0.335476
271.511	0.335413
271.381	0.335356
271.248	0.335259
271.111	0.335166
270.972	0.335084
270.833	0.335002
270.696	0.334914
270.557	0.334816
270.42	0.334733
270.285	0.334659
270.151	0.334619
270.018	0.334662
269.886	0.334771
269.75	0.334969
269.611	0.335244
269.464	0.33553
269.314	0.335827
269.164	0.33604
269.015	0.33616
268.869	0.336136
268.727	0.335984
268.589	0.335759
268.455	0.335471
268.328	0.335132
268.204	0.334747
268.081	0.334326
267.956	0.333937
267.829	0.333556
267.697	0.333215
267.564	0.332789
267.436	0.332495
267.314	0.332243
267.197	0.332068
267.086	0.331981
266.976	0.331931
266.864	0.33192
266.75	0.332003
266.63	0.332097
266.505	0.332196
266.384	0.332298
266.268	0.332403
266.153	0.332527
266.033	0.332629
265.904	0.332721
265.772	0.332802
265.637	0.332866
265.501	0.33293
265.364	0.33294
265.228	0.332896
265.097	0.332819
264.971	0.332711
264.852	0.332573
264.738	0.332432
264.625	0.332288
264.514	0.332153
264.402	0.332065
264.289	0.331972
264.173	0.33184
264.054	0.331659
263.934	0.331458
263.818	0.331209
263.701	0.330951
263.586	0.3307
263.472	0.33047
263.358	0.330225
263.247	0.329981
263.138	0.32974
263.027	0.329515
262.917	0.329347
262.805	0.329235
262.684	0.329144
262.559	0.32915
262.428	0.329156
262.295	0.329232
262.16	0.329249
262.02	0.329285
261.878	0.329277
261.741	0.329195
261.609	0.329039
261.482	0.328789
261.361	0.328447
261.244	0.328042
261.129	0.327622
261.018	0.327175
260.908	0.326732
260.797	0.326338
260.685	0.326012
260.573	0.325714
260.461	0.325494
260.348	0.325388
260.235	0.32541
260.125	0.325468
260.015	0.325613
259.903	0.325764
259.786	0.325954
259.666	0.326139
259.544	0.326277
259.419	0.326454
259.289	0.326662
259.156	0.326847
259.021	0.327018
258.884	0.327134
258.747	0.327226
258.609	0.3273
258.47	0.327305
258.325	0.327252
258.174	0.327192
258.019	0.32712
257.861	0.327054
257.699	0.326963
257.54	0.326873
257.383	0.326712
257.231	0.326515
257.085	0.326235
256.933	0.325913
256.777	0.325543
256.618	0.325174
256.46	0.324787
256.309	0.324398
256.164	0.324032
256.029	0.323707
255.901	0.323402
255.779	0.323178
255.658	0.322937
255.533	0.322745
255.4	0.322619
255.263	0.322558
255.125	0.322544
254.988	0.322573
254.849	0.322756
254.704	0.322843
254.553	0.322922
254.4	0.322979
254.249	0.322995
254.1	0.323
253.951	0.322926
253.8	0.322796
253.646	0.322625
253.49	0.322411
253.333	0.32216
253.17	0.321869
253.002	0.321563
252.839	0.321252
252.68	0.320938
252.527	0.320649
252.378	0.320386
252.231	0.320181
252.086	0.320027
251.944	0.319967
251.801	0.319925
251.662	0.319905
251.525	0.319933
251.386	0.319975
251.243	0.320034
251.098	0.32006
250.952	0.320024
250.804	0.319958
250.655	0.319891
250.502	0.319832
250.346	0.320014
250.19	0.319993
250.036	0.32004
249.883	0.320113
249.735	0.320221
249.589	0.320335
249.448	0.320497
249.309	0.320649
249.172	0.320805
249.039	0.320848
248.91	0.320823
248.779	0.320717
248.644	0.3205
248.511	0.320241
248.382	0.319959
248.256	0.319659
248.127	0.319368
247.998	0.31908
247.867	0.318728
247.736	0.318514
247.601	0.318362
247.465	0.318262
247.33	0.318256
247.193	0.318307
247.054	0.318425
246.915	0.318572
246.776	0.318714
246.635	0.318835
246.489	0.318974
246.343	0.319076
246.202	0.319104
246.062	0.319041
245.925	0.318959
245.792	0.318834
245.658	0.318614
245.521	0.31843
245.376	0.318221
245.228	0.317943
245.078	0.317701
244.93	0.317463
244.789	0.31723
244.654	0.316978
244.521	0.316762
244.384	0.316551
244.241	0.31635
244.099	0.31619
243.962	0.316072
243.829	0.315945
243.697	0.31586
243.562	0.315745
243.425	0.31562
243.284	0.315463
243.145	0.315286
243.006	0.314978
242.871	0.314776
242.738	0.31455
242.609	0.314339
242.483	0.314113
242.352	0.313888
242.219	0.313706
242.08	0.313557
241.939	0.313429
241.795	0.313333
241.648	0.313226
241.497	0.313199
241.345	0.313193
241.191	0.313191
241.035	0.313184
240.88	0.313196
240.729	0.31325
240.58	0.313323
240.43	0.313406
240.281	0.313509
240.131	0.313608
239.986	0.313735
239.843	0.313903
239.702	0.314101
239.561	0.314346
239.418	0.314602
239.272	0.314847
239.132	0.315039
238.995	0.31517
238.858	0.315228
238.721	0.315228
238.582	0.315174
238.441	0.315046
238.3	0.314851
238.155	0.314567
238.004	0.314235
237.849	0.313843
237.688	0.313541
237.53	0.313086
237.373	0.31264
237.22	0.312203
237.07	0.311773
236.928	0.311391
236.789	0.311052
236.651	0.310757
236.516	0.310508
236.383	0.31031
236.258	0.30992
236.133	0.309803
236.015	0.309678
235.903	0.309555
235.792	0.309431
235.679	0.309302
235.567	0.309212
235.452	0.309187
235.333	0.309245
235.214	0.30942
235.095	0.309655
234.974	0.309942
234.849	0.310243
234.72	0.310534
234.583	0.310818
234.438	0.311088
234.29	0.311322
234.134	0.311526
233.982	0.311782
233.836	0.311892
233.695	0.311935
233.551	0.311932
233.408	0.311715
233.267	0.311535
233.129	0.311256
232.992	0.310921
232.854	0.310539
232.716	0.310142
232.576	0.309747
232.434	0.30935
232.289	0.308968
232.142	0.308587
231.993	0.308224
231.847	0.307869
231.696	0.307586
231.544	0.307237
231.392	0.306911
231.242	0.306629
231.093	0.30634
230.945	0.30603
230.797	0.305775
230.65	0.305531
230.505	0.305351
230.36	0.305251
230.218	0.305191
230.079	0.30518
229.942	0.305233
229.808	0.305336
229.677	0.305459
229.546	0.305634
229.418	0.305867
229.288	0.306127
229.16	0.306401
229.034	0.306805
228.908	0.307083
228.779	0.307337
228.644	0.30756
228.507	0.307783
228.369	0.308
228.23	0.308187
228.09	0.308369
227.952	0.308513
227.819	0.308601
227.69	0.308616
227.566	0.308561
227.445	0.30842
227.323	0.308203
227.202	0.307917
227.079	0.307576
226.956	0.30715
226.829	0.306669
226.702	0.306155
226.575	0.305628
226.442	0.305098
226.301	0.304546
226.151	0.304029
225.995	0.303519
225.832	0.303035
225.668	0.30261
225.504	0.302295
225.34	0.302087
225.176	0.301986
225.012	0.30197
224.85	0.302038
224.688	0.302173
224.526	0.302357
224.369	0.302604
224.219	0.302881
224.072	0.303167
223.93	0.303314
223.79	0.303452
223.65	0.303703
223.515	0.303896
223.377	0.304058
223.237	0.30418
223.094	0.304261
222.953	0.304298
222.813	0.304301
222.677	0.304263
222.541	0.304221
222.407	0.304136
222.274	0.30403
222.143	0.303918
222.014	0.30381
221.886	0.303697
221.76	0.30363
221.635	0.303498
221.512	0.303431
221.388	0.303219
221.267	0.302967
221.144	0.302703
221.019	0.302441
220.895	0.302179
220.769	0.302002
220.643	0.301824
220.516	0.301649
220.39	0.30148
220.263	0.301306
220.135	0.30112
220.006	0.300929
219.87	0.300721
219.733	0.300485
219.595	0.300371
219.455	0.300121
219.314	0.299885
219.171	0.299493
219.027	0.299269
218.882	0.29907
218.732	0.298899
218.582	0.298782
218.43	0.298712
218.277	0.298695
218.123	0.298741
217.97	0.298839
217.818	0.298969
217.668	0.299128
217.517	0.299311
217.365	0.299501
217.21	0.299694
217.048	0.299911
216.885	0.300093
216.723	0.300288
216.562	0.300422
216.402	0.300494
216.244	0.30055
216.086	0.300531
215.927	0.300463
215.77	0.300375
215.616	0.300267
215.466	0.300146
215.321	0.300007
215.181	0.299861
215.043	0.299711
214.902	0.299551
214.758	0.2994
214.613	0.29926
214.466	0.299126
214.318	0.298983
214.169	0.298862
214.021	0.298745
213.874	0.298643
213.727	0.298601
213.579	0.298616
213.431	0.298705
213.284	0.298878
213.141	0.299117
213.001	0.299381
212.862	0.299667
212.726	0.299925
212.589	0.300202
212.449	0.300465
212.308	0.300695
212.168	0.300864
212.029	0.300985
211.891	0.301064
211.754	0.301039
211.614	0.300947
211.471	0.300794
211.328	0.30058
211.184	0.300295
211.038	0.299982
210.894	0.299642
210.752	0.299305
210.61	0.299029
210.467	0.298722
210.33	0.29848
210.197	0.298281
210.067	0.298154
209.938	0.298125
209.809	0.298281
209.68	0.298362
209.551	0.29847
209.42	0.298612
209.293	0.298745
209.166	0.298871
209.04	0.298987
208.914	0.299092
208.783	0.299188
208.648	0.299283
208.51	0.299376
208.371	0.299472
208.229	0.299614
208.086	0.299768
207.946	0.299906
207.806	0.300097
207.667	0.300328
207.53	0.300604
207.397	0.300797
207.269	0.301099
207.143	0.301364
207.017	0.301574
206.895	0.301715
206.778	0.301803
206.662	0.301792
206.551	0.301723
206.44	0.301618
206.331	0.301486
206.223	0.301337
206.115	0.301212
206.006	0.301088
205.895	0.301089
205.781	0.300997
205.669	0.300962
205.554	0.300964
205.443	0.301023
205.333	0.301317
205.221	0.301554
205.112	0.30188
205.004	0.30231
204.896	0.302837
204.79	0.303446
204.684	0.304095
204.576	0.304736
204.468	0.305361
204.358	0.305962
204.245	0.306535
204.127	0.307091
204.006	0.307627
203.883	0.308142
203.758	0.308642
203.631	0.309125
203.505	0.309609
203.378	0.31007
203.25	0.310523
203.122	0.310964
202.998	0.311446
202.872	0.311941
202.743	0.312407
202.612	0.312862
202.477	0.313296
202.338	0.313697
202.2	0.314068
202.064	0.314406
201.929	0.314725
201.795	0.315021
201.661	0.315306
201.522	0.315586
201.381	0.31585
201.24	0.316087
201.1	0.316317
200.954	0.316513
200.807	0.316766
200.659	0.316905
200.513	0.317017
200.369	0.317109
200.227	0.317214
200.086	0.317378
199.946	0.317569
199.801	0.317829
199.653	0.318111
199.507	0.318437
199.36	0.31881
199.217	0.319251
199.077	0.319733
198.935	0.320255
198.789	0.320816
198.642	0.321409
198.493	0.322009
198.343	0.322604
198.192	0.3232
198.039	0.323764
197.884	0.324369
197.726	0.324924
197.565	0.325444
197.404	0.326045
197.242	0.326674
197.08	0.32732
196.914	0.328044
196.75	0.328776
196.583	0.329555
196.417	0.330377
196.25	0.331239
196.081	0.332139
195.912	0.333084
195.744	0.334081
195.579	0.335137
195.416	0.336242
195.249	0.337395
195.086	0.338599
194.922	0.339832
194.757	0.341138
194.596	0.342272
194.436	0.343598
194.276	0.344994
194.116	0.34643
193.956	0.347922
193.796	0.349485
193.636	0.351173
193.476	0.352989
193.316	0.354951
193.157	0.357061
193.001	0.35931
192.846	0.361681
192.694	0.364149
192.545	0.366717
192.392	0.369363
192.237	0.37206
192.081	0.374804
191.922	0.377551
191.767	0.380308
191.611	0.382963
191.457	0.385719
191.307	0.388408
191.155	0.391081
191.009	0.393722
190.866	0.396316
190.723	0.398812
190.577	0.401291
190.428	0.403647
190.277	0.405912
190.128	0.408125
189.981	0.410299
189.836	0.412484
189.693	0.414687
189.549	0.416931
189.403	0.419198
189.256	0.421491
189.106	0.423804
188.954	0.42615
188.798	0.428515
188.644	0.430898
188.491	0.43329
188.338	0.435757
188.187	0.438201
188.036	0.440664
187.886	0.443143
187.737	0.445644
187.587	0.448198
187.439	0.450812
187.298	0.453494
187.163	0.456259
187.033	0.459102
186.906	0.462033
186.781	0.465038
186.658	0.468167
186.541	0.471355
186.426	0.474601
186.312	0.477902
186.197	0.481248
186.08	0.484608
185.964	0.488004
185.846	0.491342
185.729	0.494792
185.614	0.498266
185.501	0.501765
185.39	0.505294
185.279	0.508835
185.171	0.512445
185.059	0.51617
184.946	0.519959
184.83	0.523864
184.716	0.527891
184.602	0.532047
184.487	0.536331
184.372	0.540763
184.254	0.545328
184.132	0.550025
184.007	0.55485
183.878	0.559812
183.747	0.564881
183.617	0.570079
183.487	0.575312
183.358	0.580663
183.229	0.586043
183.1	0.591451
182.972	0.596874
182.845	0.602338
182.717	0.607781
182.589	0.613259
182.464	0.618767
182.34	0.624316
182.217	0.629901
182.094	0.635528
181.971	0.641227
181.847	0.646992
181.723	0.652823
181.601	0.658746
181.477	0.66476
181.353	0.670841
181.224	0.677
181.092	0.683244
180.963	0.689722
180.836	0.696101
180.712	0.702475
180.594	0.708898
180.479	0.715346
180.363	0.7218
180.245	0.728269
180.126	0.734749
180.008	0.741278
179.894	0.747833
179.781	0.754436
179.674	0.761104
179.568	0.767814
179.463	0.774595
179.356	0.781452
179.249	0.788413
179.138	0.795482
179.026	0.802664
178.914	0.809954
178.802	0.817364
178.685	0.824878
178.569	0.832501
178.453	0.840195
178.332	0.847956
178.206	0.855779
178.08	0.863687
177.952	0.871588
177.824	0.879574
177.694	0.887629
177.563	0.895726
177.431	0.903874
177.299	0.91206
177.171	0.920292
177.047	0.928576
176.917	0.936927
176.787	0.945343
176.655	0.953846
176.524	0.962441
176.388	0.971136
176.249	0.979934
176.107	0.988822
175.964	0.997754
175.823	1.00681
175.685	1.01594
175.549	1.02514
175.413	1.0344
175.278	1.04371
175.146	1.05307
175.015	1.06249
174.889	1.07195
174.762	1.08145
174.638	1.09098
174.517	1.10054
174.394	1.11008
174.27	1.11964
174.146	1.12922
174.021	1.13886
173.897	1.14855
173.771	1.15832
173.643	1.16817
173.513	1.17811
173.384	1.18816
173.256	1.19833
173.124	1.20859
172.991	1.21897
172.857	1.22948
172.723	1.24009
172.588	1.25074
172.451	1.26149
172.313	1.27228
172.173	1.28309
172.035	1.29388
171.899	1.30466
171.764	1.3154
171.63	1.32611
171.495	1.33677
171.362	1.34741
171.226	1.35799
171.09	1.36853
170.952	1.37903
170.817	1.38953
170.684	1.40004
170.553	1.41055
170.422	1.42108
170.29	1.43176
170.16	1.44232
170.027	1.45287
169.893	1.46344
169.759	1.47403
169.624	1.48464
169.49	1.49532
169.358	1.50603
169.226	1.51675
169.096	1.52745
168.964	1.53812
168.837	1.54876
168.708	1.55934
168.576	1.5699
168.448	1.58041
168.322	1.59087
168.195	1.6013
168.07	1.6117
167.947	1.62203
167.825	1.63242
167.702	1.64279
167.58	1.65315
167.458	1.66353
167.332	1.67391
167.203	1.68429
167.078	1.6947
166.955	1.70513
166.833	1.71555
166.709	1.72598
166.588	1.73639
166.469	1.74678
166.35	1.75712
166.23	1.7674
166.109	1.77763
165.987	1.7878
165.864	1.79791
165.739	1.80797
165.614	1.81798
165.488	1.82793
165.363	1.83791
165.236	1.84781
165.109	1.8577
164.982	1.86755
164.856	1.87736
164.731	1.88713
164.608	1.89685
164.487	1.90656
164.367	1.91625
164.247	1.92594
164.127	1.93562
164.007	1.9453
163.89	1.95499
163.773	1.96467
163.65	1.97433
163.524	1.98397
163.398	1.99357
163.268	2.00312
163.138	2.01267
163.009	2.02222
162.88	2.03174
162.752	2.04126
162.623	2.05077
162.495	2.06025
162.366	2.06967
162.237	2.07903
162.11	2.08832
161.982	2.09754
161.854	2.10672
161.725	2.11585
161.59	2.12497
161.452	2.13407
161.31	2.14317
161.164	2.15223
161.016	2.1613
160.867	2.1703
160.718	2.17926
160.57	2.18819
160.42	2.19706
160.271	2.2059
160.122	2.21466
159.972	2.2233
159.821	2.23183
159.672	2.24023
159.525	2.24852
159.38	2.25669
159.238	2.26474
159.096	2.27271
158.956	2.2806
158.818	2.28841
158.681	2.29616
158.544	2.30387
158.407	2.31152
158.269	2.31909
158.131	2.32665
157.993	2.33418
157.854	2.34167
157.714	2.34914
157.575	2.35657
157.434	2.36397
157.293	2.37128
157.151	2.3784
