Temperature Strain
304.546	0.612387
304.542	0.612387
304.53	0.612441
304.516	0.612557
304.503	0.612706
304.489	0.613035
304.474	0.613203
304.456	0.613376
304.438	0.613504
304.419	0.613574
304.399	0.61361
304.38	0.613586
304.362	0.613494
304.344	0.613355
304.327	0.61317
304.302	0.612966
304.274	0.612789
304.245	0.612616
304.215	0.612493
304.184	0.612425
304.151	0.612399
304.118	0.612496
304.086	0.612686
304.055	0.612973
304.024	0.613381
303.993	0.613744
303.965	0.614119
303.938	0.614491
303.911	0.614784
303.883	0.615014
303.85	0.615182
303.813	0.61528
303.775	0.615339
303.741	0.61536
303.71	0.615343
303.682	0.61516
303.657	0.615011
303.631	0.614811
303.599	0.614556
303.571	0.61427
303.54	0.613986
303.507	0.613658
303.472	0.613321
303.435	0.61299
303.398	0.61287
303.361	0.612531
303.323	0.612258
303.285	0.612007
303.243	0.611759
303.193	0.611522
303.136	0.611302
303.074	0.611234
303.01	0.610992
302.943	0.610706
302.877	0.6102
302.812	0.60987
302.748	0.609557
302.686	0.609218
302.628	0.609151
302.573	0.608925
302.517	0.608751
302.461	0.608638
302.404	0.608592
302.345	0.608556
302.285	0.608547
302.223	0.608583
302.158	0.608662
302.093	0.608801
302.03	0.608925
301.962	0.609071
301.892	0.609227
301.819	0.609382
301.745	0.609556
301.663	0.609708
301.578	0.609903
301.494	0.610147
301.416	0.610365
301.345	0.610541
301.279	0.610725
301.211	0.61075
301.145	0.610669
301.081	0.610477
301.016	0.61017
300.949	0.609842
300.882	0.609468
300.813	0.609068
300.742	0.608653
300.668	0.608247
300.591	0.607865
300.513	0.607531
300.44	0.607254
300.369	0.607046
300.3	0.606879
300.228	0.606768
300.158	0.606735
300.087	0.606778
300.013	0.606909
299.937	0.607224
299.857	0.607417
299.779	0.60763
299.698	0.607851
299.614	0.608092
299.527	0.608333
299.438	0.608567
299.347	0.608819
299.255	0.609052
299.164	0.609263
299.069	0.609431
298.967	0.609571
298.86	0.609689
298.754	0.609887
298.65	0.609944
298.549	0.60995
298.447	0.609915
298.343	0.609866
298.247	0.609792
298.151	0.609643
298.057	0.609466
297.962	0.609227
297.869	0.608938
297.778	0.608582
297.687	0.608196
297.594	0.607811
297.503	0.607442
297.42	0.607128
297.343	0.606889
297.268	0.606729
297.195	0.606656
297.122	0.60665
297.049	0.60643
296.976	0.606529
296.903	0.606708
296.826	0.606928
296.748	0.607185
296.667	0.607447
296.586	0.607819
296.504	0.608076
296.422	0.608296
296.34	0.60847
296.258	0.608578
296.173	0.608613
296.089	0.608577
296.007	0.608448
295.92	0.608225
295.838	0.607916
295.756	0.607523
295.672	0.607049
295.583	0.606535
295.495	0.606007
295.409	0.605535
295.321	0.605057
295.23	0.604606
295.134	0.604235
295.036	0.60396
294.938	0.603951
294.841	0.603814
294.743	0.603698
294.647	0.603608
294.552	0.60355
294.459	0.603495
294.367	0.603451
294.277	0.603409
294.188	0.603386
294.103	0.60339
294.017	0.603435
293.932	0.603489
293.843	0.603556
293.753	0.603615
293.663	0.603872
293.57	0.603993
293.478	0.604097
293.382	0.604201
293.281	0.604331
293.174	0.604487
293.062	0.604607
292.95	0.604702
292.835	0.60478
292.716	0.604839
292.592	0.60489
292.469	0.604947
292.349	0.60501
292.234	0.605083
292.122	0.605158
292.013	0.605224
291.91	0.605281
291.806	0.605319
291.701	0.605343
291.593	0.60547
291.49	0.605482
291.39	0.605468
291.286	0.605459
291.181	0.605442
291.075	0.605473
290.969	0.605495
290.863	0.605484
290.755	0.605442
290.648	0.60533
290.543	0.605191
290.436	0.604998
290.327	0.604749
290.217	0.604438
290.105	0.604082
289.992	0.603695
289.875	0.603277
289.754	0.602833
289.63	0.602408
289.504	0.602006
289.374	0.601616
289.243	0.601289
289.112	0.601022
288.98	0.600685
288.849	0.600493
288.717	0.600386
288.587	0.600303
288.451	0.600219
288.313	0.600135
288.175	0.600067
288.035	0.600003
287.896	0.599949
287.758	0.599909
287.623	0.599896
287.492	0.599877
287.364	0.59986
287.239	0.599816
287.114	0.599768
286.988	0.599593
286.86	0.599493
286.731	0.599396
286.602	0.599307
286.471	0.599528
286.339	0.599506
286.207	0.599465
286.074	0.599438
285.94	0.599413
285.801	0.599406
285.656	0.599412
285.511	0.599454
285.364	0.599542
285.216	0.599681
285.065	0.599879
284.914	0.600099
284.764	0.600405
284.616	0.600755
284.472	0.601133
284.328	0.601507
284.185	0.601919
284.045	0.602364
283.911	0.602822
283.788	0.603274
283.666	0.603635
283.545	0.603964
283.428	0.604195
283.317	0.604298
283.212	0.604247
283.109	0.604084
283.005	0.603806
282.899	0.603456
282.788	0.603053
282.68	0.602596
282.567	0.602136
282.454	0.601676
282.338	0.601247
282.221	0.600848
282.102	0.600413
281.981	0.600106
281.86	0.599858
281.738	0.599679
281.615	0.599559
281.491	0.599344
281.365	0.599312
281.239	0.599316
281.109	0.599342
280.978	0.599342
280.847	0.599331
280.715	0.599292
280.584	0.599219
280.456	0.599107
280.326	0.598956
280.2	0.598767
280.075	0.598526
279.949	0.598243
279.824	0.598046
279.704	0.597772
279.586	0.597482
279.467	0.597228
279.349	0.597023
279.23	0.596842
279.11	0.596626
278.989	0.596562
278.872	0.596573
278.76	0.596623
278.648	0.596719
278.538	0.596837
278.429	0.597004
278.321	0.597221
278.208	0.597479
278.093	0.597797
277.976	0.598162
277.856	0.598557
277.735	0.598954
277.616	0.59937
277.498	0.599763
277.379	0.600131
277.259	0.600495
277.136	0.600833
277.011	0.601119
276.886	0.601349
276.757	0.601547
276.628	0.601651
276.501	0.60167
276.382	0.601603
276.265	0.601469
276.152	0.601255
276.04	0.60098
275.933	0.600664
275.829	0.60031
275.725	0.599923
275.619	0.599514
275.51	0.599105
275.4	0.598794
275.289	0.598422
275.178	0.598091
275.066	0.597814
274.951	0.597627
274.836	0.597504
274.719	0.597571
274.599	0.597616
274.477	0.597678
274.353	0.59777
274.226	0.597859
274.096	0.597956
273.963	0.598054
273.829	0.598135
273.694	0.598199
273.558	0.598231
273.423	0.598239
273.291	0.598204
273.159	0.598128
273.027	0.598004
272.894	0.597834
272.764	0.597667
272.634	0.597435
272.505	0.597207
272.374	0.596978
272.243	0.59681
272.111	0.596629
271.981	0.596447
271.853	0.596249
271.727	0.596066
271.602	0.595901
271.474	0.595782
271.346	0.595736
271.218	0.595761
271.085	0.59586
270.954	0.596049
270.819	0.596295
270.683	0.596577
270.546	0.596914
270.406	0.597213
270.266	0.597515
270.126	0.597799
269.986	0.598085
269.848	0.598302
269.711	0.598546
269.577	0.598645
269.442	0.598678
269.307	0.598641
269.172	0.598536
269.037	0.598358
268.903	0.598123
268.767	0.597842
268.632	0.597506
268.496	0.597137
268.361	0.596742
268.226	0.596331
268.09	0.595823
267.955	0.595429
267.822	0.595091
267.692	0.594795
267.566	0.594591
267.439	0.594466
267.311	0.594309
267.187	0.594305
267.065	0.59438
266.941	0.594474
266.814	0.594579
266.685	0.594713
266.555	0.594814
266.424	0.594904
266.293	0.594963
266.162	0.595001
266.031	0.595002
265.898	0.594969
265.764	0.594891
265.629	0.594718
265.492	0.594578
265.355	0.594406
265.216	0.594225
265.077	0.594039
264.939	0.593913
264.804	0.593804
264.672	0.593719
264.541	0.593666
264.412	0.593619
264.287	0.59359
264.163	0.59359
264.042	0.593632
263.924	0.593714
263.805	0.593843
263.681	0.594011
263.552	0.594211
263.422	0.594448
263.287	0.594828
263.152	0.595102
263.016	0.595361
262.88	0.59562
262.744	0.595899
262.606	0.596216
262.471	0.596496
262.335	0.59666
262.202	0.596857
262.07	0.597002
261.935	0.597068
261.8	0.597033
261.665	0.596906
261.527	0.596685
261.381	0.596373
261.233	0.596003
261.085	0.595567
260.937	0.59511
260.79	0.59462
260.644	0.594278
260.502	0.593774
260.363	0.593278
260.224	0.592828
260.087	0.592438
259.948	0.592133
259.808	0.591923
259.667	0.591788
259.523	0.591728
259.375	0.591707
259.226	0.591746
259.077	0.591794
258.929	0.591859
258.782	0.591904
258.638	0.591964
258.494	0.592019
258.356	0.592087
258.221	0.592141
258.086	0.592188
257.947	0.592268
257.806	0.592303
257.661	0.592327
257.517	0.592368
257.375	0.5924
257.235	0.592492
257.096	0.592607
256.958	0.592702
256.819	0.592856
256.679	0.593003
256.54	0.593154
256.4	0.593304
256.257	0.593443
256.109	0.593596
255.957	0.593768
255.804	0.593976
255.65	0.594219
255.498	0.594493
255.347	0.594818
255.194	0.595177
255.038	0.595586
254.881	0.596026
254.72	0.596484
254.559	0.596947
254.401	0.59742
254.245	0.597968
254.091	0.598369
253.938	0.598683
253.788	0.598905
253.639	0.599008
253.494	0.598997
253.35	0.598882
253.209	0.598646
253.07	0.598317
252.938	0.597943
252.808	0.597528
252.675	0.597088
252.543	0.596632
252.408	0.596117
252.269	0.595672
252.126	0.595264
251.981	0.59493
251.831	0.594665
251.674	0.594528
251.514	0.594571
251.352	0.594677
251.188	0.594894
251.028	0.595216
250.868	0.595628
250.709	0.596065
250.556	0.596529
250.413	0.597001
250.274	0.597469
250.14	0.597925
250.007	0.598352
249.878	0.598744
249.749	0.599091
249.616	0.599483
249.482	0.599759
249.345	0.600004
249.205	0.600238
249.064	0.600452
248.918	0.600535
248.768	0.600732
248.617	0.600938
248.466	0.601138
248.316	0.601316
248.165	0.601453
248.015	0.60161
247.863	0.601747
247.715	0.601896
247.568	0.602071
247.416	0.602277
247.26	0.60254
247.099	0.602878
246.942	0.603247
246.787	0.603688
246.636	0.604178
246.487	0.604766
246.339	0.605358
246.19	0.605986
246.041	0.606455
245.889	0.607089
245.74	0.607706
245.594	0.608263
245.448	0.608752
245.303	0.609151
245.159	0.609435
245.018	0.609649
244.874	0.609782
244.726	0.609845
244.579	0.609836
244.431	0.609778
244.286	0.609729
244.144	0.609631
244.007	0.609512
243.878	0.60943
243.755	0.609389
243.635	0.609418
243.514	0.609503
243.391	0.609608
243.265	0.609815
243.136	0.610089
243.004	0.610408
242.874	0.610754
242.74	0.611078
242.608	0.611408
242.474	0.611754
242.339	0.612105
242.202	0.61246
242.07	0.612832
241.938	0.613172
241.808	0.613573
241.685	0.613947
241.562	0.614328
241.441	0.61472
241.321	0.615129
241.206	0.615579
241.096	0.616031
240.988	0.616484
240.877	0.616907
240.768	0.617322
240.656	0.617724
240.543	0.618133
240.426	0.618541
240.307	0.618972
240.185	0.619436
240.063	0.619947
239.94	0.620509
239.815	0.621087
239.687	0.621769
239.558	0.622533
239.431	0.623379
239.302	0.624279
239.174	0.625202
239.044	0.626135
238.913	0.627061
238.786	0.627974
238.663	0.628916
238.543	0.629752
238.425	0.630526
238.309	0.631198
238.191	0.631776
238.071	0.632209
237.949	0.632511
237.824	0.632664
237.699	0.632677
237.575	0.632561
237.454	0.632351
237.339	0.632079
237.223	0.631766
237.106	0.631465
236.984	0.631203
236.862	0.630997
236.736	0.630869
236.612	0.630815
236.489	0.630843
236.366	0.63086
236.24	0.631046
236.114	0.631311
235.985	0.631658
235.854	0.632083
235.72	0.632575
235.588	0.633125
235.463	0.633731
235.343	0.634575
235.225	0.635319
235.106	0.636091
234.987	0.636921
234.868	0.637838
234.748	0.638812
234.626	0.639846
234.503	0.6409
234.377	0.641967
234.248	0.64301
234.119	0.644052
233.988	0.645049
233.857	0.646019
233.724	0.646922
233.589	0.647817
233.451	0.64868
233.313	0.649537
233.171	0.65039
233.028	0.651264
232.884	0.652276
232.737	0.653254
232.59	0.654309
232.443	0.655455
232.294	0.656662
232.147	0.658007
231.999	0.659507
231.85	0.661092
231.699	0.662747
231.549	0.664423
231.4	0.666166
231.251	0.66794
231.098	0.669692
230.942	0.671408
230.786	0.67307
230.633	0.674676
230.483	0.676217
230.335	0.677705
230.187	0.679242
230.036	0.680612
229.886	0.681938
229.737	0.683255
229.588	0.68459
229.439	0.68593
229.29	0.687313
229.142	0.688731
228.998	0.690156
228.856	0.691623
228.712	0.693096
228.57	0.694642
228.424	0.696222
228.272	0.697823
228.121	0.699443
227.965	0.701075
227.811	0.702729
227.658	0.704449
227.505	0.706192
227.351	0.707994
227.198	0.709875
227.046	0.711862
226.893	0.713866
226.745	0.715937
226.6	0.71804
226.458	0.720175
226.314	0.722324
226.17	0.724508
226.024	0.726645
225.872	0.72875
225.716	0.730816
225.558	0.732863
225.396	0.734855
225.233	0.736902
225.067	0.738988
224.904	0.741114
224.738	0.743329
224.569	0.745644
224.4	0.748054
224.232	0.750568
224.068	0.753187
223.906	0.755896
223.746	0.758689
223.586	0.761584
223.428	0.764544
223.268	0.767561
223.111	0.770611
222.956	0.773687
222.801	0.776781
222.647	0.779865
222.493	0.782826
222.342	0.785862
222.193	0.788866
222.049	0.791859
221.905	0.794846
221.762	0.7978
221.621	0.800786
221.483	0.803771
221.344	0.806745
221.204	0.809711
221.063	0.812711
220.921	0.815769
220.78	0.818908
220.641	0.821946
220.501	0.825238
220.36	0.828649
220.218	0.832144
220.077	0.835709
219.938	0.839324
219.799	0.842963
219.666	0.846713
219.53	0.850465
219.394	0.85428
219.256	0.858189
219.118	0.862201
218.981	0.86632
218.849	0.870541
218.717	0.874872
218.587	0.879294
218.458	0.883781
218.329	0.888317
218.201	0.892889
218.073	0.897375
217.945	0.90195
217.817	0.906499
217.693	0.911007
217.566	0.915492
217.442	0.919875
217.325	0.924171
217.207	0.928477
217.093	0.932812
216.978	0.937193
216.863	0.941658
216.745	0.946258
216.627	0.950922
216.507	0.955695
216.385	0.960536
216.264	0.965454
216.14	0.970428
216.011	0.975426
215.882	0.980334
215.754	0.985364
215.623	0.990403
215.494	0.995427
215.371	1.00041
215.252	1.00537
215.134	1.01035
215.021	1.01522
214.912	1.02009
214.806	1.02495
214.701	1.02981
214.599	1.03469
214.498	1.03956
214.395	1.04443
214.29	1.04928
214.18	1.05408
214.066	1.05885
213.95	1.06357
213.833	1.06829
213.713	1.073
213.594	1.07768
213.471	1.0823
213.346	1.08697
213.219	1.09164
213.095	1.09635
212.972	1.10075
212.848	1.10552
212.721	1.11031
212.594	1.11517
212.466	1.12009
212.334	1.12508
212.199	1.13014
212.059	1.13531
211.92	1.14049
211.779	1.14568
211.638	1.15089
211.498	1.15605
211.356	1.16119
211.215	1.16627
211.076	1.17132
210.94	1.17632
210.805	1.18129
210.668	1.18624
210.532	1.19117
210.399	1.19611
210.264	1.20116
210.132	1.2062
209.999	1.21137
209.867	1.21678
209.731	1.22244
209.594	1.22853
209.455	1.23483
209.313	1.24146
209.169	1.2484
209.022	1.25561
208.873	1.26314
208.723	1.2709
208.572	1.27891
208.423	1.28714
208.275	1.29557
208.127	1.30417
207.98	1.31289
207.834	1.32172
207.687	1.33061
207.541	1.33961
207.397	1.3485
207.254	1.35736
207.11	1.36618
206.966	1.37498
206.822	1.38375
206.681	1.39243
206.543	1.40113
206.407	1.40978
206.272	1.41834
206.141	1.42681
206.009	1.43517
205.875	1.44343
205.745	1.45158
205.613	1.45964
205.477	1.46764
205.339	1.47557
205.198	1.48345
205.053	1.49128
204.906	1.49901
204.76	1.50684
204.613	1.5147
204.465	1.52261
204.318	1.5306
204.168	1.53865
204.019	1.54673
203.871	1.55478
203.723	1.56281
203.572	1.57077
203.422	1.57861
203.271	1.58639
203.116	1.59406
202.964	1.60167
202.809	1.60923
202.654	1.61673
202.494	1.62421
202.331	1.6315
202.168	1.63894
202.004	1.64639
201.839	1.65389
201.677	1.66142
201.515	1.66901
201.36	1.67658
201.21	1.68425
201.059	1.69193
200.913	1.6996
200.767	1.70725
200.621	1.71486
200.475	1.72243
200.327	1.72996
200.176	1.73749
200.02	1.74503
199.862	1.75261
199.703	1.7602
199.543	1.76784
199.38	1.77551
199.221	1.78316
199.061	1.7909
198.905	1.79869
198.749	1.80655
198.595	1.81453
198.441	1.82297
198.289	1.83128
198.14	1.83979
197.991	1.84846
197.844	1.85729
197.699	1.86627
197.554	1.87542
197.41	1.88472
197.265	1.89418
197.117	1.90382
196.968	1.91362
196.82	1.9236
196.671	1.93361
196.522	1.94393
196.37	1.95444
196.215	1.96513
196.062	1.97602
195.91	1.98707
195.763	1.99829
195.616	2.00965
195.469	2.02101
195.321	2.03255
195.174	2.04408
195.027	2.05551
194.879	2.0668
194.731	2.07783
194.583	2.08861
194.435	2.09909
194.287	2.10926
194.141	2.11913
193.997	2.12868
193.854	2.13791
193.711	2.14675
193.569	2.15544
193.427	2.16387
193.286	2.17209
193.144	2.18013
193.003	2.18797
192.864	2.1957
192.724	2.20322
192.586	2.21073
192.447	2.21818
192.31	2.22554
192.173	2.23284
192.036	2.24008
191.902	2.24727
191.767	2.25442
191.634	2.26154
191.502	2.26862
191.371	2.27566
191.243	2.28273
191.114	2.28968
190.985	2.29681
190.856	2.304
190.726	2.31125
190.596	2.31859
190.463	2.32606
190.328	2.33361
190.194	2.3413
190.057	2.34893
189.919	2.35655
189.781	2.36412
189.644	2.37163
189.507	2.37904
189.37	2.38638
189.233	2.39367
189.096	2.40091
188.958	2.4081
188.82	2.41526
188.68	2.42241
188.534	2.42956
188.388	2.43692
188.237	2.4441
188.085	2.45128
187.936	2.45852
187.786	2.46597
187.636	2.47336
187.487	2.48087
187.336	2.48848
187.183	2.4962
187.027	2.50405
186.867	2.51202
186.707	2.52011
186.547	2.52835
186.389	2.53672
186.233	2.54524
186.078	2.55389
185.923	2.56269
185.77	2.57162
185.619	2.58067
185.469	2.58984
185.321	2.59915
185.172	2.60852
185.025	2.61798
184.878	2.62752
184.733	2.63723
184.589	2.64701
184.443	2.65679
184.299	2.66656
184.155	2.67627
184.012	2.68589
183.871	2.69533
183.729	2.70462
183.586	2.71372
183.441	2.72262
183.292	2.73132
183.142	2.73981
182.995	2.74809
182.849	2.75616
182.701	2.76401
182.55	2.77162
182.397	2.77905
182.244	2.78647
182.09	2.79359
181.933	2.8005
181.776	2.80724
181.619	2.81377
181.463	2.82011
181.305	2.82625
181.147	2.83221
180.989	2.83801
180.831	2.84361
180.673	2.84906
180.517	2.85435
180.364	2.85951
180.214	2.86458
180.066	2.86957
179.919	2.87449
179.774	2.87938
179.63	2.88423
179.488	2.88909
179.347	2.89393
179.207	2.89886
179.067	2.9037
178.926	2.90854
178.786	2.91342
178.647	2.91825
178.507	2.92308
178.372	2.92788
178.238	2.93267
178.107	2.93743
177.978	2.94219
177.852	2.94694
177.727	2.9517
177.604	2.95647
177.484	2.96127
177.368	2.96608
177.254	2.97093
177.142	2.97582
177.027	2.9808
176.914	2.9858
176.803	2.991
176.692	2.99609
176.583	3.00123
176.479	3.00637
176.38	3.01153
176.286	3.01665
176.194	3.02177
176.103	3.02686
176.013	3.03194
175.922	3.03701
175.831	3.04208
175.741	3.04713
175.651	3.05219
175.562	3.05726
175.473	3.06235
175.384	3.06747
175.295	3.07262
175.205	3.07792
175.114	3.08314
175.023	3.0884
174.932	3.0935
174.841	3.09885
174.749	3.10428
174.657	3.1097
174.564	3.11513
174.468	3.1205
174.376	3.12574
174.286	3.1309
174.199	3.13592
174.119	3.1408
174.042	3.14556
173.966	3.15017
173.892	3.15468
173.82	3.15905
173.75	3.16344
173.681	3.16758
173.615	3.17163
173.552	3.17559
173.492	3.17946
173.435	3.18323
173.379	3.18686
173.322	3.1904
173.269	3.19384
173.215	3.19714
173.163	3.20029
173.113	3.20322
173.064	3.20604
173.014	3.20871
172.963	3.21124
172.911	3.21364
172.857	3.21593
172.803	3.21813
172.746	3.22024
172.687	3.2223
172.628	3.2243
172.568	3.22625
172.51	3.22816
172.449	3.23
172.389	3.23186
172.331	3.23376
172.273	3.23562
172.217	3.23745
172.156	3.23927
172.096	3.24109
172.036	3.24289
171.977	3.24468
171.918	3.24641
171.856	3.24817
171.793	3.24995
171.728	3.25174
171.662	3.25355
171.594	3.25539
171.526	3.25729
171.457	3.25931
171.386	3.26142
171.312	3.26366
171.237	3.26616
171.16	3.26868
171.08	3.27136
171	3.27415
170.917	3.27711
170.833	3.2802
170.748	3.28342
170.66	3.28675
170.571	3.29014
170.48	3.29364
170.385	3.29722
170.289	3.30083
170.19	3.3045
170.089	3.30821
169.988	3.31193
169.885	3.31568
169.781	3.31941
169.679	3.32313
169.577	3.32682
169.474	3.33048
169.371	3.33413
169.267	3.33771
169.162	3.34124
169.057	3.34472
168.953	3.34815
168.846	3.35151
168.738	3.35479
168.63	3.35802
168.518	3.36114
168.403	3.36418
168.287	3.36715
168.168	3.37005
168.049	3.37287
167.929	3.37565
167.807	3.37839
167.683	3.3811
167.554	3.38377
167.418	3.3864
167.279	3.38904
167.137	3.39166
166.992	3.39429
166.845	3.39682
166.697	3.39947
166.549	3.40212
166.4	3.40475
166.251	3.40738
166.101	3.40998
165.95	3.41257
165.799	3.41514
165.648	3.41771
165.496	3.42026
165.343	3.4228
165.191	3.42531
165.04	3.42782
164.889	3.43031
164.738	3.4328
164.588	3.43525
164.438	3.43775
164.289	3.44008
164.14	3.44254
163.99	3.44499
163.842	3.44743
163.693	3.44988
163.542	3.45231
163.388	3.45475
163.236	3.45723
163.085	3.45969
162.934	3.46217
162.783	3.46468
162.632	3.46726
162.481	3.46988
162.33	3.47258
162.179	3.47536
162.027	3.47821
161.875	3.48113
161.724	3.48411
161.573	3.48709
161.424	3.49019
161.276	3.49336
161.128	3.49659
160.979	3.4999
160.83	3.50334
160.682	3.50677
160.529	3.51023
160.373	3.51371
160.219	3.5172
160.067	3.52069
159.915	3.52417
159.763	3.52764
159.61	3.53113
159.455	3.53466
159.298	3.53816
159.137	3.54164
158.973	3.54512
158.806	3.54856
158.642	3.55197
158.477	3.55536
158.313	3.55863
158.151	3.56181
157.989	3.56487
157.826	3.5677
157.664	3.5705
157.502	3.57318
157.34	3.57574
157.181	3.57813
157.023	3.58037
156.864	3.58246
156.706	3.58441
156.549	3.58623
156.395	3.58794
156.241	3.58949
156.09	3.59103
