Temperature Strain
307.38	0.252202
307.381	0.252202
307.382	0.25206
307.384	0.251815
307.385	0.251481
307.384	0.251092
307.383	0.250644
307.38	0.25014
307.373	0.249598
307.365	0.249048
307.358	0.24858
307.351	0.248355
307.342	0.248213
307.334	0.248161
307.325	0.248146
307.316	0.248129
307.308	0.248192
307.298	0.248345
307.285	0.248598
307.268	0.248946
307.25	0.249354
307.231	0.249781
307.21	0.250203
307.192	0.250557
307.173	0.250841
307.154	0.251042
307.134	0.251178
307.114	0.25126
307.089	0.251307
307.062	0.251343
307.034	0.251318
307.003	0.251249
306.969	0.251115
306.932	0.250907
306.891	0.250634
306.848	0.250335
306.802	0.250036
306.752	0.249711
306.701	0.249421
306.651	0.249185
306.6	0.249021
306.547	0.248923
306.494	0.24887
306.442	0.248807
306.391	0.248744
306.34	0.248649
306.289	0.248527
306.239	0.248416
306.19	0.248294
306.145	0.248279
306.098	0.248431
306.051	0.248552
306.004	0.248658
305.955	0.248545
305.904	0.248261
305.851	0.247921
305.798	0.247496
305.743	0.24701
305.689	0.246497
305.636	0.245946
305.581	0.24541
305.522	0.244887
305.46	0.244374
305.398	0.24387
305.333	0.243369
305.269	0.242869
305.203	0.24244
305.135	0.242046
305.067	0.242009
304.999	0.242143
304.931	0.242484
304.863	0.242932
304.794	0.24344
304.726	0.244023
304.653	0.244598
304.579	0.245148
304.503	0.245666
304.426	0.246131
304.348	0.246541
304.271	0.246881
304.194	0.247137
304.114	0.247261
304.032	0.247242
303.947	0.247054
303.861	0.246694
303.775	0.246213
303.686	0.245656
303.596	0.245078
303.506	0.244486
303.413	0.243881
303.319	0.243304
303.225	0.242775
303.131	0.242298
303.038	0.241944
302.948	0.241716
302.856	0.241601
302.766	0.241553
302.674	0.241573
302.583	0.241651
302.491	0.241814
302.398	0.242065
302.304	0.242389
302.211	0.24277
302.118	0.243158
302.028	0.243554
301.938	0.243936
301.848	0.244245
301.761	0.244608
301.676	0.244963
301.593	0.245263
301.511	0.245427
301.431	0.245299
301.353	0.245028
301.274	0.244599
301.194	0.244067
301.114	0.243514
301.032	0.242913
300.947	0.24231
300.853	0.241712
300.755	0.241116
300.653	0.240536
300.551	0.239954
300.45	0.239408
300.348	0.238957
300.244	0.238688
300.139	0.238737
300.028	0.238902
299.914	0.239276
299.793	0.239734
299.667	0.240227
299.532	0.240748
299.395	0.241263
299.259	0.24174
299.128	0.242201
298.999	0.242622
298.875	0.242958
298.755	0.243201
298.637	0.243322
298.518	0.243296
298.401	0.243108
298.283	0.242745
298.166	0.242247
298.048	0.241684
297.93	0.241111
297.811	0.240406
297.69	0.239863
297.566	0.239289
297.44	0.238733
297.313	0.238223
297.188	0.237826
297.064	0.237552
296.943	0.237414
296.822	0.237377
296.704	0.237418
296.584	0.237439
296.462	0.237535
296.337	0.237695
296.206	0.237922
296.075	0.238202
295.939	0.238537
295.801	0.238884
295.668	0.239225
295.537	0.239563
295.408	0.239695
295.283	0.240024
295.163	0.240315
295.042	0.240561
294.923	0.24076
294.804	0.240634
294.685	0.240359
294.567	0.239925
294.448	0.239425
294.33	0.238862
294.212	0.238248
294.094	0.237638
293.98	0.237023
293.867	0.236413
293.755	0.235828
293.64	0.235277
293.523	0.234786
293.404	0.234365
293.283	0.234137
293.161	0.234064
293.036	0.23432
292.912	0.234745
292.787	0.235236
292.661	0.235749
292.534	0.236256
292.41	0.236811
292.284	0.237324
292.157	0.237783
292.034	0.238162
291.911	0.238412
291.794	0.238469
291.678	0.238321
291.56	0.237982
291.439	0.237496
291.315	0.236953
291.19	0.236417
291.062	0.235876
290.933	0.23534
290.809	0.234826
290.687	0.23433
290.569	0.23384
290.457	0.233378
290.353	0.233029
290.252	0.232923
290.152	0.232879
290.049	0.232914
289.943	0.232998
289.831	0.233111
289.711	0.233275
289.589	0.233487
289.465	0.233763
289.344	0.234111
289.222	0.234499
289.104	0.234864
288.984	0.235165
288.865	0.235394
288.745	0.235539
288.625	0.235587
288.509	0.235624
288.393	0.23556
288.276	0.235481
288.159	0.235313
288.04	0.234947
287.919	0.234595
287.795	0.234143
287.666	0.233672
287.535	0.233187
287.405	0.232687
287.278	0.232192
287.16	0.231697
287.049	0.231185
286.946	0.230706
286.845	0.230263
286.741	0.2299
286.635	0.229659
286.523	0.229607
286.406	0.229736
286.281	0.230046
286.154	0.230481
286.026	0.230952
285.897	0.231449
285.769	0.232077
285.639	0.23254
285.51	0.233034
285.379	0.233482
285.248	0.23383
285.118	0.234024
284.987	0.233992
284.854	0.233736
284.721	0.233298
284.592	0.232751
284.464	0.232229
284.338	0.231688
284.214	0.231163
284.09	0.230642
283.967	0.230125
283.844	0.229551
283.721	0.22904
283.599	0.228604
283.479	0.228304
283.358	0.228353
283.238	0.228338
283.121	0.228403
283.002	0.228511
282.887	0.228661
282.772	0.228843
282.655	0.229075
282.54	0.229347
282.427	0.22966
282.311	0.229985
282.193	0.230297
282.075	0.230526
281.957	0.230679
281.84	0.230735
281.722	0.230706
281.604	0.230525
281.487	0.230425
281.371	0.230351
281.254	0.230215
281.134	0.23005
281.014	0.229669
280.892	0.229228
280.773	0.228744
280.658	0.228234
280.542	0.227709
280.426	0.227129
280.306	0.226573
280.185	0.226061
280.061	0.225608
279.935	0.225255
279.81	0.225034
279.688	0.224986
279.562	0.225102
279.436	0.225395
279.309	0.225801
279.185	0.226224
279.062	0.226666
278.939	0.227115
278.817	0.227575
278.696	0.227982
278.579	0.228371
278.461	0.228692
278.342	0.228859
278.224	0.228782
278.103	0.228533
277.979	0.228111
277.852	0.227577
277.722	0.226974
277.592	0.226351
277.461	0.225718
277.332	0.225104
277.206	0.224502
277.082	0.224083
276.959	0.223505
276.835	0.223028
276.707	0.222714
276.58	0.22265
276.452	0.222843
276.323	0.22313
276.191	0.223556
276.056	0.223985
275.916	0.224401
275.778	0.224778
275.641	0.225097
275.501	0.225371
275.361	0.225579
275.22	0.225714
275.081	0.225772
274.943	0.225746
274.805	0.225641
274.666	0.225462
274.53	0.225311
274.393	0.225112
274.255	0.224883
274.113	0.224657
273.971	0.22436
273.828	0.224001
273.682	0.223581
273.534	0.223108
273.386	0.222627
273.24	0.222118
273.096	0.221603
272.953	0.221081
272.811	0.220602
272.671	0.220185
272.528	0.219879
272.379	0.219698
272.227	0.219667
272.073	0.219793
271.918	0.220053
271.765	0.220314
271.613	0.220718
271.46	0.221147
271.307	0.22157
271.157	0.221993
271.008	0.222416
270.86	0.222871
270.714	0.223233
270.57	0.223464
270.429	0.223487
270.289	0.223283
270.153	0.222846
270.019	0.222291
269.888	0.221668
269.759	0.221024
269.63	0.220386
269.497	0.219753
269.366	0.219137
269.235	0.218518
269.1	0.217957
268.96	0.217445
268.817	0.217105
268.677	0.216998
268.537	0.217169
268.397	0.217466
268.256	0.217951
268.119	0.218358
267.986	0.218772
267.854	0.219154
267.725	0.219496
267.599	0.219813
267.473	0.220058
267.348	0.220248
267.221	0.220369
267.089	0.22041
266.956	0.220363
266.819	0.220247
266.677	0.220027
266.531	0.219774
266.386	0.21949
266.239	0.219193
266.091	0.218857
265.944	0.218493
265.797	0.218094
265.651	0.217654
265.505	0.217206
265.358	0.216747
265.211	0.216275
265.059	0.215779
264.911	0.215323
264.764	0.214875
264.615	0.214456
264.468	0.214075
264.323	0.213777
264.18	0.213596
264.041	0.213567
263.903	0.213724
263.766	0.214032
263.628	0.214435
263.494	0.214897
263.362	0.215367
263.228	0.215849
263.094	0.216162
262.961	0.216672
262.829	0.217124
262.695	0.217447
262.561	0.217546
262.424	0.217375
262.287	0.217032
262.15	0.216529
262.019	0.21589
261.894	0.215186
261.771	0.214484
261.652	0.213819
261.533	0.213181
261.412	0.212735
261.289	0.21223
261.165	0.211829
261.04	0.211542
260.91	0.211407
260.781	0.211458
260.654	0.211618
260.525	0.211938
260.397	0.212323
260.272	0.212692
260.145	0.213048
260.012	0.21338
259.877	0.213699
259.741	0.213969
259.604	0.214196
259.467	0.214362
259.334	0.214463
259.203	0.214487
259.075	0.21438
258.948	0.214016
258.825	0.213668
258.703	0.21325
258.58	0.212805
258.455	0.212356
258.328	0.211925
258.206	0.211578
258.082	0.21114
257.958	0.210683
257.831	0.210225
257.703	0.209771
257.572	0.20932
257.442	0.20888
257.315	0.208474
257.19	0.208112
257.071	0.207848
256.954	0.207708
256.839	0.207716
256.729	0.207874
256.621	0.208127
256.512	0.208544
256.404	0.208959
256.293	0.209407
256.183	0.209871
256.071	0.210363
255.96	0.210808
255.851	0.211225
255.747	0.211517
255.642	0.211612
255.54	0.211447
255.435	0.211143
255.329	0.210712
255.224	0.21018
255.113	0.209568
255	0.208935
254.881	0.20831
254.76	0.207699
254.636	0.20712
254.51	0.206577
254.385	0.206117
254.259	0.205756
254.13	0.205551
254.002	0.20555
253.877	0.205762
253.751	0.206107
253.628	0.206498
253.504	0.206879
253.382	0.207248
253.261	0.20759
253.144	0.207878
253.028	0.20813
252.911	0.208335
252.797	0.208501
252.684	0.208619
252.568	0.208679
252.45	0.208537
252.33	0.20849
252.208	0.208363
252.085	0.208206
251.966	0.208025
251.85	0.207837
251.73	0.20761
251.609	0.20731
251.49	0.206929
251.369	0.206478
251.243	0.205992
251.116	0.205496
250.992	0.204998
250.867	0.20452
250.739	0.20406
250.61	0.203634
250.478	0.203272
250.343	0.203026
250.207	0.202894
250.067	0.202899
249.929	0.203039
249.793	0.203297
249.658	0.203634
249.519	0.204008
249.384	0.204374
249.248	0.20478
249.11	0.205048
248.97	0.205435
248.833	0.205757
248.698	0.205971
248.561	0.206017
248.422	0.205871
248.277	0.205505
248.125	0.204986
247.972	0.204402
247.82	0.203787
247.668	0.20318
247.522	0.202585
247.376	0.201928
247.236	0.201409
247.098	0.200955
246.962	0.200617
246.826	0.200394
246.689	0.200332
246.557	0.200443
246.429	0.200832
246.302	0.201181
246.176	0.201567
246.051	0.201942
245.928	0.20226
245.807	0.20252
245.685	0.202763
245.563	0.202966
245.439	0.203132
245.314	0.203331
245.191	0.203347
245.068	0.203349
244.947	0.20329
244.828	0.203166
244.706	0.203009
244.584	0.202825
244.462	0.202602
244.338	0.202355
244.212	0.202062
244.084	0.201768
243.951	0.20136
243.815	0.200981
243.679	0.200606
243.54	0.200218
243.393	0.199822
243.242	0.199456
243.086	0.19911
242.929	0.198779
242.77	0.198425
242.616	0.1982
242.463	0.198051
242.316	0.198014
242.176	0.198093
242.037	0.198302
241.895	0.198515
241.748	0.198748
241.6	0.198975
241.454	0.199193
241.305	0.199418
241.158	0.199609
241.017	0.199752
240.877	0.199802
240.74	0.19972
240.605	0.199481
240.474	0.199105
240.346	0.198674
240.217	0.198223
240.091	0.197644
239.964	0.197235
239.838	0.196822
239.713	0.196466
239.586	0.196184
239.457	0.195996
239.331	0.19589
239.202	0.195877
239.076	0.196073
238.95	0.196186
238.825	0.196372
238.698	0.196575
238.57	0.196758
238.442	0.196884
238.32	0.196972
238.203	0.197012
238.085	0.197017
237.966	0.196989
237.842	0.196923
237.713	0.197025
237.579	0.196876
237.446	0.196698
237.306	0.1965
237.167	0.196297
237.027	0.196071
236.887	0.195834
236.745	0.195604
236.603	0.195372
236.459	0.195154
236.316	0.194959
236.173	0.194768
236.029	0.194579
235.881	0.194403
235.731	0.194211
235.58	0.194034
235.428	0.19386
235.279	0.193711
235.132	0.193616
234.985	0.193609
234.837	0.193636
234.689	0.193741
234.542	0.193889
234.398	0.194042
234.255	0.194216
234.115	0.194397
233.977	0.194559
233.842	0.194749
233.706	0.19481
233.576	0.194809
233.446	0.19474
233.317	0.194612
233.188	0.194396
233.063	0.194101
232.941	0.193763
232.821	0.193406
232.701	0.193036
232.583	0.192679
232.462	0.1922
232.338	0.191899
232.209	0.191605
232.073	0.191339
231.931	0.191115
231.788	0.190851
231.645	0.19079
231.501	0.190731
231.354	0.190724
231.207	0.190767
231.057	0.190838
230.905	0.190891
230.755	0.190922
230.603	0.190914
230.447	0.190867
230.287	0.190753
230.126	0.190602
229.966	0.190383
229.806	0.190123
229.647	0.189858
229.49	0.18962
229.333	0.189376
229.177	0.189132
229.022	0.188914
228.868	0.188766
228.715	0.188561
228.56	0.188385
228.404	0.188214
228.247	0.188057
228.088	0.187848
227.929	0.187675
227.769	0.187496
227.606	0.187327
227.44	0.187066
227.28	0.186902
227.121	0.186772
226.967	0.186683
226.816	0.186623
226.667	0.186617
226.516	0.186651
226.37	0.186712
226.225	0.186785
226.08	0.186862
225.939	0.187041
225.797	0.187027
225.655	0.187035
225.509	0.18699
225.361	0.186888
225.209	0.186724
225.054	0.186525
224.9	0.186292
224.748	0.186049
224.597	0.186097
224.448	0.185862
224.3	0.185699
224.153	0.185603
224.003	0.185578
223.852	0.185611
223.697	0.185701
223.542	0.185836
223.382	0.185986
223.221	0.18613
223.059	0.18606
222.896	0.186172
222.734	0.186237
222.577	0.18625
222.419	0.186199
222.264	0.186097
222.111	0.185906
221.957	0.185606
221.801	0.185289
221.643	0.184944
221.486	0.184567
221.331	0.184192
221.173	0.183832
221.017	0.183489
220.861	0.183149
220.706	0.182827
220.557	0.18254
220.412	0.18229
220.27	0.182078
220.13	0.181893
219.994	0.181754
219.861	0.181609
219.729	0.181456
219.599	0.181303
219.47	0.181169
219.338	0.180963
219.206	0.180765
219.079	0.180591
218.955	0.180451
218.829	0.180348
218.701	0.180266
218.571	0.180194
218.437	0.180127
218.304	0.180084
218.169	0.180036
218.035	0.180002
217.898	0.179969
217.761	0.179928
217.622	0.18004
217.483	0.180003
217.345	0.179978
217.208	0.179931
217.074	0.179862
216.942	0.179806
216.812	0.179725
216.684	0.179666
216.556	0.179654
216.432	0.179616
216.306	0.179587
216.184	0.17957
216.06	0.179564
215.937	0.179551
215.816	0.179532
215.694	0.179514
215.571	0.17947
215.445	0.179438
215.32	0.179308
215.194	0.179238
215.067	0.179122
214.941	0.179021
214.813	0.17894
214.689	0.178874
214.567	0.178838
214.445	0.178828
214.32	0.178826
214.194	0.178826
214.067	0.17881
213.938	0.178778
213.809	0.178722
213.682	0.178657
213.556	0.178568
213.432	0.178559
213.309	0.178451
213.189	0.178302
213.067	0.178117
212.946	0.177938
212.824	0.177702
212.698	0.177442
212.565	0.177183
212.429	0.176939
212.287	0.176725
212.142	0.176523
211.997	0.176341
211.853	0.176167
211.712	0.175998
211.575	0.175846
211.438	0.175691
211.304	0.175536
211.17	0.175367
211.036	0.175195
210.902	0.174714
210.767	0.174521
210.632	0.174285
210.497	0.174032
210.361	0.173889
210.226	0.173579
210.089	0.173313
209.95	0.173099
209.809	0.172959
209.666	0.172902
209.519	0.172949
209.371	0.173072
209.225	0.173261
209.077	0.173507
208.931	0.173803
208.79	0.174127
208.649	0.174485
208.514	0.174913
208.378	0.175319
208.244	0.175694
208.112	0.176044
207.979	0.176321
207.848	0.17646
207.718	0.176489
207.587	0.176336
207.456	0.176069
207.325	0.175719
207.194	0.175344
207.062	0.174959
206.93	0.174613
206.797	0.174293
206.665	0.174004
206.531	0.173755
206.395	0.173562
206.259	0.173354
206.124	0.173227
205.986	0.173103
205.847	0.172982
205.708	0.172852
205.567	0.172711
205.426	0.172556
205.277	0.172393
205.125	0.172263
204.971	0.172088
204.82	0.17193
204.67	0.171775
204.519	0.171645
204.369	0.171517
204.217	0.171417
204.068	0.171321
203.918	0.171236
203.769	0.171174
203.623	0.171128
203.479	0.171079
203.334	0.171029
203.188	0.170969
203.04	0.170866
202.889	0.170785
202.738	0.170719
202.587	0.17066
202.438	0.170689
202.291	0.170683
202.147	0.17076
202.009	0.170907
201.874	0.171124
201.745	0.171393
201.617	0.171785
201.49	0.172147
201.366	0.17254
201.243	0.172864
201.118	0.173037
200.99	0.173022
200.858	0.172812
200.724	0.172429
200.588	0.171947
200.453	0.171445
200.318	0.170948
200.184	0.17047
200.051	0.170023
199.919	0.169653
199.79	0.169211
199.663	0.168838
199.539	0.168588
199.418	0.168448
199.299	0.16853
199.183	0.168781
199.07	0.169114
198.955	0.169478
198.842	0.169852
198.728	0.170206
198.613	0.170514
198.5	0.170805
198.385	0.17105
198.269	0.171232
198.151	0.171324
198.031	0.171304
197.911	0.17117
197.79	0.17093
197.669	0.17057
197.549	0.170276
197.427	0.17002
197.304	0.1698
197.182	0.169603
197.059	0.16942
196.935	0.169113
196.813	0.168967
196.69	0.168765
196.568	0.168516
196.448	0.168219
196.327	0.167897
196.204	0.167538
196.081	0.167178
195.956	0.166834
195.827	0.166479
195.698	0.166199
195.571	0.165945
195.45	0.165717
195.334	0.165558
195.222	0.165388
195.108	0.165247
194.994	0.165157
194.882	0.165127
194.77	0.165203
194.66	0.165363
194.551	0.165694
194.442	0.166096
194.335	0.16651
194.226	0.166841
194.117	0.167072
194.009	0.167149
193.902	0.167115
193.798	0.167007
193.697	0.166844
193.594	0.166637
193.491	0.166419
193.386	0.166177
193.28	0.165935
193.172	0.165729
193.063	0.165515
192.952	0.165362
192.84	0.165367
192.728	0.165559
192.616	0.165877
192.505	0.166312
192.393	0.166741
192.28	0.167163
192.167	0.167544
192.055	0.167919
191.947	0.16822
191.839	0.16846
191.731	0.168622
191.622	0.168688
191.512	0.168642
191.401	0.168494
191.289	0.168251
191.172	0.167934
191.054	0.167587
190.932	0.167287
190.81	0.166974
190.686	0.166688
190.559	0.166361
190.431	0.166112
190.301	0.165817
190.17	0.165531
190.038	0.165231
189.904	0.164925
189.77	0.164621
189.636	0.164295
189.503	0.163996
189.37	0.163797
189.238	0.163777
189.105	0.163981
188.971	0.164413
188.834	0.165035
188.695	0.165772
188.558	0.166549
188.419	0.167403
188.279	0.168175
188.139	0.168929
188	0.169619
187.858	0.170406
187.716	0.17115
187.574	0.171762
187.432	0.17226
187.291	0.1725
187.154	0.172483
187.017	0.17231
186.883	0.172002
186.753	0.171583
186.624	0.171068
186.495	0.17062
186.364	0.170191
186.231	0.16984
186.095	0.169578
185.962	0.169451
185.829	0.169461
185.692	0.169643
185.557	0.169965
185.422	0.17046
185.286	0.170957
185.15	0.171474
185.012	0.172031
184.875	0.172624
184.737	0.173238
184.6	0.173873
184.462	0.174516
184.325	0.175171
184.187	0.175821
184.048	0.176461
183.908	0.177067
183.765	0.177638
183.622	0.178173
183.478	0.178672
183.334	0.179171
183.188	0.17958
183.042	0.179963
182.895	0.180278
182.748	0.180598
182.601	0.18094
182.454	0.181299
182.306	0.181653
182.162	0.182072
182.02	0.182519
181.879	0.182988
181.739	0.183473
181.597	0.184004
181.457	0.184587
181.318	0.185259
181.178	0.18604
181.037	0.18693
180.896	0.187912
180.753	0.188932
180.611	0.189972
180.468	0.191006
180.325	0.192029
180.182	0.193025
180.039	0.19397
179.898	0.194911
179.757	0.195872
179.617	0.196791
179.476	0.197582
179.335	0.198204
179.193	0.198735
179.051	0.199202
178.908	0.19967
178.765	0.200131
178.623	0.200605
178.482	0.201075
178.343	0.201567
178.204	0.202098
178.062	0.202659
177.921	0.203327
177.779	0.204101
177.64	0.204983
177.5	0.205991
177.362	0.207055
177.225	0.208269
177.088	0.209506
176.95	0.210834
176.809	0.212233
176.669	0.213709
176.529	0.215251
176.389	0.216926
176.25	0.218637
176.111	0.220382
175.973	0.22216
175.835	0.223952
175.699	0.225752
175.567	0.227536
175.432	0.22929
175.298	0.231013
175.166	0.232685
175.031	0.234292
174.897	0.235866
174.764	0.237408
174.632	0.238858
174.5	0.240344
174.368	0.241971
174.234	0.243717
174.1	0.245601
173.967	0.247657
173.833	0.249903
173.699	0.252362
173.564	0.255022
173.428	0.257915
173.293	0.261044
173.158	0.264409
173.023	0.268022
172.89	0.271856
172.76	0.275893
172.633	0.279975
172.506	0.284138
172.383	0.28834
172.262	0.292575
172.142	0.296827
172.022	0.301092
171.9	0.30537
171.778	0.309679
171.657	0.314014
171.536	0.318355
171.418	0.322711
171.301	0.327092
171.183	0.331462
171.068	0.335836
170.955	0.34022
170.843	0.344633
170.732	0.349084
170.622	0.353578
170.512	0.35813
170.402	0.362752
170.291	0.367437
170.181	0.372168
170.071	0.37695
169.958	0.381775
169.847	0.386646
169.737	0.391551
169.625	0.396539
169.514	0.401489
169.402	0.406479
169.292	0.411484
169.18	0.416513
169.069	0.421526
168.956	0.426539
168.843	0.431549
168.732	0.436551
168.622	0.441536
168.511	0.446538
168.401	0.451547
168.286	0.456559
168.171	0.461603
168.057	0.466685
167.94	0.47183
167.823	0.477036
167.707	0.482313
167.593	0.487674
167.477	0.493145
167.361	0.498735
167.245	0.504407
167.13	0.510189
167.014	0.516091
166.898	0.522119
166.785	0.528291
166.671	0.534567
166.556	0.540991
166.442	0.54756
166.326	0.554287
166.211	0.56118
166.097	0.568249
165.984	0.575516
165.869	0.582995
165.754	0.59073
165.64	0.598679
165.523	0.606869
165.407	0.615283
165.289	0.623905
165.171	0.632792
165.055	0.641833
164.939	0.651082
164.827	0.660521
164.717	0.670158
164.609	0.679971
164.502	0.689996
164.396	0.700159
164.292	0.710502
164.186	0.721037
164.078	0.731747
163.972	0.742625
163.864	0.753673
163.755	0.764871
163.647	0.776211
163.54	0.787655
163.432	0.799199
163.326	0.810834
163.218	0.82249
163.109	0.834245
163.001	0.846096
162.891	0.857869
162.782	0.869622
162.671	0.881307
162.56	0.892922
162.449	0.90441
162.337	0.915756
162.224	0.926967
162.11	0.938058
161.995	0.949029
161.88	0.95989
161.765	0.970658
161.648	0.98133
