Temperature	Strain_p	Strain
304.546000	0.612387	0.006124
304.542000	0.612387	0.006124
304.530000	0.612441	0.006124
304.516000	0.612557	0.006126
304.503000	0.612706	0.006127
304.489000	0.613035	0.006130
304.474000	0.613203	0.006132
304.456000	0.613376	0.006134
304.438000	0.613504	0.006135
304.419000	0.613574	0.006136
304.399000	0.613610	0.006136
304.380000	0.613586	0.006136
304.362000	0.613494	0.006135
304.344000	0.613355	0.006134
304.327000	0.613170	0.006132
304.302000	0.612966	0.006130
304.274000	0.612789	0.006128
304.245000	0.612616	0.006126
304.215000	0.612493	0.006125
304.184000	0.612425	0.006124
304.151000	0.612399	0.006124
304.118000	0.612496	0.006125
304.086000	0.612686	0.006127
304.055000	0.612973	0.006130
304.024000	0.613381	0.006134
303.993000	0.613744	0.006137
303.965000	0.614119	0.006141
303.938000	0.614491	0.006145
303.911000	0.614784	0.006148
303.883000	0.615014	0.006150
303.850000	0.615182	0.006152
303.813000	0.615280	0.006153
303.775000	0.615339	0.006153
303.741000	0.615360	0.006154
303.710000	0.615343	0.006153
303.682000	0.615160	0.006152
303.657000	0.615011	0.006150
303.631000	0.614811	0.006148
303.599000	0.614556	0.006146
303.571000	0.614270	0.006143
303.540000	0.613986	0.006140
303.507000	0.613658	0.006137
303.472000	0.613321	0.006133
303.435000	0.612990	0.006130
303.398000	0.612870	0.006129
303.361000	0.612531	0.006125
303.323000	0.612258	0.006123
303.285000	0.612007	0.006120
303.243000	0.611759	0.006118
303.193000	0.611522	0.006115
303.136000	0.611302	0.006113
303.074000	0.611234	0.006112
303.010000	0.610992	0.006110
302.943000	0.610706	0.006107
302.877000	0.610200	0.006102
302.812000	0.609870	0.006099
302.748000	0.609557	0.006096
302.686000	0.609218	0.006092
302.628000	0.609151	0.006092
302.573000	0.608925	0.006089
302.517000	0.608751	0.006088
302.461000	0.608638	0.006086
302.404000	0.608592	0.006086
302.345000	0.608556	0.006086
302.285000	0.608547	0.006085
302.223000	0.608583	0.006086
302.158000	0.608662	0.006087
302.093000	0.608801	0.006088
302.030000	0.608925	0.006089
301.962000	0.609071	0.006091
301.892000	0.609227	0.006092
301.819000	0.609382	0.006094
301.745000	0.609556	0.006096
301.663000	0.609708	0.006097
301.578000	0.609903	0.006099
301.494000	0.610147	0.006101
301.416000	0.610365	0.006104
301.345000	0.610541	0.006105
301.279000	0.610725	0.006107
301.211000	0.610750	0.006108
301.145000	0.610669	0.006107
301.081000	0.610477	0.006105
301.016000	0.610170	0.006102
300.949000	0.609842	0.006098
300.882000	0.609468	0.006095
300.813000	0.609068	0.006091
300.742000	0.608653	0.006087
300.668000	0.608247	0.006082
300.591000	0.607865	0.006079
300.513000	0.607531	0.006075
300.440000	0.607254	0.006073
300.369000	0.607046	0.006070
300.300000	0.606879	0.006069
300.228000	0.606768	0.006068
300.158000	0.606735	0.006067
300.087000	0.606778	0.006068
300.013000	0.606909	0.006069
299.937000	0.607224	0.006072
299.857000	0.607417	0.006074
299.779000	0.607630	0.006076
299.698000	0.607851	0.006079
299.614000	0.608092	0.006081
299.527000	0.608333	0.006083
299.438000	0.608567	0.006086
299.347000	0.608819	0.006088
299.255000	0.609052	0.006091
299.164000	0.609263	0.006093
299.069000	0.609431	0.006094
298.967000	0.609571	0.006096
298.860000	0.609689	0.006097
298.754000	0.609887	0.006099
298.650000	0.609944	0.006099
298.549000	0.609950	0.006100
298.447000	0.609915	0.006099
298.343000	0.609866	0.006099
298.247000	0.609792	0.006098
298.151000	0.609643	0.006096
298.057000	0.609466	0.006095
297.962000	0.609227	0.006092
297.869000	0.608938	0.006089
297.778000	0.608582	0.006086
297.687000	0.608196	0.006082
297.594000	0.607811	0.006078
297.503000	0.607442	0.006074
297.420000	0.607128	0.006071
297.343000	0.606889	0.006069
297.268000	0.606729	0.006067
297.195000	0.606656	0.006067
297.122000	0.606650	0.006067
297.049000	0.606430	0.006064
296.976000	0.606529	0.006065
296.903000	0.606708	0.006067
296.826000	0.606928	0.006069
296.748000	0.607185	0.006072
296.667000	0.607447	0.006074
296.586000	0.607819	0.006078
296.504000	0.608076	0.006081
296.422000	0.608296	0.006083
296.340000	0.608470	0.006085
296.258000	0.608578	0.006086
296.173000	0.608613	0.006086
296.089000	0.608577	0.006086
296.007000	0.608448	0.006084
295.920000	0.608225	0.006082
295.838000	0.607916	0.006079
295.756000	0.607523	0.006075
295.672000	0.607049	0.006070
295.583000	0.606535	0.006065
295.495000	0.606007	0.006060
295.409000	0.605535	0.006055
295.321000	0.605057	0.006051
295.230000	0.604606	0.006046
295.134000	0.604235	0.006042
295.036000	0.603960	0.006040
294.938000	0.603951	0.006040
294.841000	0.603814	0.006038
294.743000	0.603698	0.006037
294.647000	0.603608	0.006036
294.552000	0.603550	0.006036
294.459000	0.603495	0.006035
294.367000	0.603451	0.006035
294.277000	0.603409	0.006034
294.188000	0.603386	0.006034
294.103000	0.603390	0.006034
294.017000	0.603435	0.006034
293.932000	0.603489	0.006035
293.843000	0.603556	0.006036
293.753000	0.603615	0.006036
293.663000	0.603872	0.006039
293.570000	0.603993	0.006040
293.478000	0.604097	0.006041
293.382000	0.604201	0.006042
293.281000	0.604331	0.006043
293.174000	0.604487	0.006045
293.062000	0.604607	0.006046
292.950000	0.604702	0.006047
292.835000	0.604780	0.006048
292.716000	0.604839	0.006048
292.592000	0.604890	0.006049
292.469000	0.604947	0.006049
292.349000	0.605010	0.006050
292.234000	0.605083	0.006051
292.122000	0.605158	0.006052
292.013000	0.605224	0.006052
291.910000	0.605281	0.006053
291.806000	0.605319	0.006053
291.701000	0.605343	0.006053
291.593000	0.605470	0.006055
291.490000	0.605482	0.006055
291.390000	0.605468	0.006055
291.286000	0.605459	0.006055
291.181000	0.605442	0.006054
291.075000	0.605473	0.006055
290.969000	0.605495	0.006055
290.863000	0.605484	0.006055
290.755000	0.605442	0.006054
290.648000	0.605330	0.006053
290.543000	0.605191	0.006052
290.436000	0.604998	0.006050
290.327000	0.604749	0.006047
290.217000	0.604438	0.006044
290.105000	0.604082	0.006041
289.992000	0.603695	0.006037
289.875000	0.603277	0.006033
289.754000	0.602833	0.006028
289.630000	0.602408	0.006024
289.504000	0.602006	0.006020
289.374000	0.601616	0.006016
289.243000	0.601289	0.006013
289.112000	0.601022	0.006010
288.980000	0.600685	0.006007
288.849000	0.600493	0.006005
288.717000	0.600386	0.006004
288.587000	0.600303	0.006003
288.451000	0.600219	0.006002
288.313000	0.600135	0.006001
288.175000	0.600067	0.006001
288.035000	0.600003	0.006000
287.896000	0.599949	0.005999
287.758000	0.599909	0.005999
287.623000	0.599896	0.005999
287.492000	0.599877	0.005999
287.364000	0.599860	0.005999
287.239000	0.599816	0.005998
287.114000	0.599768	0.005998
286.988000	0.599593	0.005996
286.860000	0.599493	0.005995
286.731000	0.599396	0.005994
286.602000	0.599307	0.005993
286.471000	0.599528	0.005995
286.339000	0.599506	0.005995
286.207000	0.599465	0.005995
286.074000	0.599438	0.005994
285.940000	0.599413	0.005994
285.801000	0.599406	0.005994
285.656000	0.599412	0.005994
285.511000	0.599454	0.005995
285.364000	0.599542	0.005995
285.216000	0.599681	0.005997
285.065000	0.599879	0.005999
284.914000	0.600099	0.006001
284.764000	0.600405	0.006004
284.616000	0.600755	0.006008
284.472000	0.601133	0.006011
284.328000	0.601507	0.006015
284.185000	0.601919	0.006019
284.045000	0.602364	0.006024
283.911000	0.602822	0.006028
283.788000	0.603274	0.006033
283.666000	0.603635	0.006036
283.545000	0.603964	0.006040
283.428000	0.604195	0.006042
283.317000	0.604298	0.006043
283.212000	0.604247	0.006042
283.109000	0.604084	0.006041
283.005000	0.603806	0.006038
282.899000	0.603456	0.006035
282.788000	0.603053	0.006031
282.680000	0.602596	0.006026
282.567000	0.602136	0.006021
282.454000	0.601676	0.006017
282.338000	0.601247	0.006012
282.221000	0.600848	0.006008
282.102000	0.600413	0.006004
281.981000	0.600106	0.006001
281.860000	0.599858	0.005999
281.738000	0.599679	0.005997
281.615000	0.599559	0.005996
281.491000	0.599344	0.005993
281.365000	0.599312	0.005993
281.239000	0.599316	0.005993
281.109000	0.599342	0.005993
280.978000	0.599342	0.005993
280.847000	0.599331	0.005993
280.715000	0.599292	0.005993
280.584000	0.599219	0.005992
280.456000	0.599107	0.005991
280.326000	0.598956	0.005990
280.200000	0.598767	0.005988
280.075000	0.598526	0.005985
279.949000	0.598243	0.005982
279.824000	0.598046	0.005980
279.704000	0.597772	0.005978
279.586000	0.597482	0.005975
279.467000	0.597228	0.005972
279.349000	0.597023	0.005970
279.230000	0.596842	0.005968
279.110000	0.596626	0.005966
278.989000	0.596562	0.005966
278.872000	0.596573	0.005966
278.760000	0.596623	0.005966
278.648000	0.596719	0.005967
278.538000	0.596837	0.005968
278.429000	0.597004	0.005970
278.321000	0.597221	0.005972
278.208000	0.597479	0.005975
278.093000	0.597797	0.005978
277.976000	0.598162	0.005982
277.856000	0.598557	0.005986
277.735000	0.598954	0.005990
277.616000	0.599370	0.005994
277.498000	0.599763	0.005998
277.379000	0.600131	0.006001
277.259000	0.600495	0.006005
277.136000	0.600833	0.006008
277.011000	0.601119	0.006011
276.886000	0.601349	0.006013
276.757000	0.601547	0.006015
276.628000	0.601651	0.006017
276.501000	0.601670	0.006017
276.382000	0.601603	0.006016
276.265000	0.601469	0.006015
276.152000	0.601255	0.006013
276.040000	0.600980	0.006010
275.933000	0.600664	0.006007
275.829000	0.600310	0.006003
275.725000	0.599923	0.005999
275.619000	0.599514	0.005995
275.510000	0.599105	0.005991
275.400000	0.598794	0.005988
275.289000	0.598422	0.005984
275.178000	0.598091	0.005981
275.066000	0.597814	0.005978
274.951000	0.597627	0.005976
274.836000	0.597504	0.005975
274.719000	0.597571	0.005976
274.599000	0.597616	0.005976
274.477000	0.597678	0.005977
274.353000	0.597770	0.005978
274.226000	0.597859	0.005979
274.096000	0.597956	0.005980
273.963000	0.598054	0.005981
273.829000	0.598135	0.005981
273.694000	0.598199	0.005982
273.558000	0.598231	0.005982
273.423000	0.598239	0.005982
273.291000	0.598204	0.005982
273.159000	0.598128	0.005981
273.027000	0.598004	0.005980
272.894000	0.597834	0.005978
272.764000	0.597667	0.005977
272.634000	0.597435	0.005974
272.505000	0.597207	0.005972
272.374000	0.596978	0.005970
272.243000	0.596810	0.005968
272.111000	0.596629	0.005966
271.981000	0.596447	0.005964
271.853000	0.596249	0.005962
271.727000	0.596066	0.005961
271.602000	0.595901	0.005959
271.474000	0.595782	0.005958
271.346000	0.595736	0.005957
271.218000	0.595761	0.005958
271.085000	0.595860	0.005959
270.954000	0.596049	0.005960
270.819000	0.596295	0.005963
270.683000	0.596577	0.005966
270.546000	0.596914	0.005969
270.406000	0.597213	0.005972
270.266000	0.597515	0.005975
270.126000	0.597799	0.005978
269.986000	0.598085	0.005981
269.848000	0.598302	0.005983
269.711000	0.598546	0.005985
269.577000	0.598645	0.005986
269.442000	0.598678	0.005987
269.307000	0.598641	0.005986
269.172000	0.598536	0.005985
269.037000	0.598358	0.005984
268.903000	0.598123	0.005981
268.767000	0.597842	0.005978
268.632000	0.597506	0.005975
268.496000	0.597137	0.005971
268.361000	0.596742	0.005967
268.226000	0.596331	0.005963
268.090000	0.595823	0.005958
267.955000	0.595429	0.005954
267.822000	0.595091	0.005951
267.692000	0.594795	0.005948
267.566000	0.594591	0.005946
267.439000	0.594466	0.005945
267.311000	0.594309	0.005943
267.187000	0.594305	0.005943
267.065000	0.594380	0.005944
266.941000	0.594474	0.005945
266.814000	0.594579	0.005946
266.685000	0.594713	0.005947
266.555000	0.594814	0.005948
266.424000	0.594904	0.005949
266.293000	0.594963	0.005950
266.162000	0.595001	0.005950
266.031000	0.595002	0.005950
265.898000	0.594969	0.005950
265.764000	0.594891	0.005949
265.629000	0.594718	0.005947
265.492000	0.594578	0.005946
265.355000	0.594406	0.005944
265.216000	0.594225	0.005942
265.077000	0.594039	0.005940
264.939000	0.593913	0.005939
264.804000	0.593804	0.005938
264.672000	0.593719	0.005937
264.541000	0.593666	0.005937
264.412000	0.593619	0.005936
264.287000	0.593590	0.005936
264.163000	0.593590	0.005936
264.042000	0.593632	0.005936
263.924000	0.593714	0.005937
263.805000	0.593843	0.005938
263.681000	0.594011	0.005940
263.552000	0.594211	0.005942
263.422000	0.594448	0.005944
263.287000	0.594828	0.005948
263.152000	0.595102	0.005951
263.016000	0.595361	0.005954
262.880000	0.595620	0.005956
262.744000	0.595899	0.005959
262.606000	0.596216	0.005962
262.471000	0.596496	0.005965
262.335000	0.596660	0.005967
262.202000	0.596857	0.005969
262.070000	0.597002	0.005970
261.935000	0.597068	0.005971
261.800000	0.597033	0.005970
261.665000	0.596906	0.005969
261.527000	0.596685	0.005967
261.381000	0.596373	0.005964
261.233000	0.596003	0.005960
261.085000	0.595567	0.005956
260.937000	0.595110	0.005951
260.790000	0.594620	0.005946
260.644000	0.594278	0.005943
260.502000	0.593774	0.005938
260.363000	0.593278	0.005933
260.224000	0.592828	0.005928
260.087000	0.592438	0.005924
259.948000	0.592133	0.005921
259.808000	0.591923	0.005919
259.667000	0.591788	0.005918
259.523000	0.591728	0.005917
259.375000	0.591707	0.005917
259.226000	0.591746	0.005917
259.077000	0.591794	0.005918
258.929000	0.591859	0.005919
258.782000	0.591904	0.005919
258.638000	0.591964	0.005920
258.494000	0.592019	0.005920
258.356000	0.592087	0.005921
258.221000	0.592141	0.005921
258.086000	0.592188	0.005922
257.947000	0.592268	0.005923
257.806000	0.592303	0.005923
257.661000	0.592327	0.005923
257.517000	0.592368	0.005924
257.375000	0.592400	0.005924
257.235000	0.592492	0.005925
257.096000	0.592607	0.005926
256.958000	0.592702	0.005927
256.819000	0.592856	0.005929
256.679000	0.593003	0.005930
256.540000	0.593154	0.005932
256.400000	0.593304	0.005933
256.257000	0.593443	0.005934
256.109000	0.593596	0.005936
255.957000	0.593768	0.005938
255.804000	0.593976	0.005940
255.650000	0.594219	0.005942
255.498000	0.594493	0.005945
255.347000	0.594818	0.005948
255.194000	0.595177	0.005952
255.038000	0.595586	0.005956
254.881000	0.596026	0.005960
254.720000	0.596484	0.005965
254.559000	0.596947	0.005969
254.401000	0.597420	0.005974
254.245000	0.597968	0.005980
254.091000	0.598369	0.005984
253.938000	0.598683	0.005987
253.788000	0.598905	0.005989
253.639000	0.599008	0.005990
253.494000	0.598997	0.005990
253.350000	0.598882	0.005989
253.209000	0.598646	0.005986
253.070000	0.598317	0.005983
252.938000	0.597943	0.005979
252.808000	0.597528	0.005975
252.675000	0.597088	0.005971
252.543000	0.596632	0.005966
252.408000	0.596117	0.005961
252.269000	0.595672	0.005957
252.126000	0.595264	0.005953
251.981000	0.594930	0.005949
251.831000	0.594665	0.005947
251.674000	0.594528	0.005945
251.514000	0.594571	0.005946
251.352000	0.594677	0.005947
251.188000	0.594894	0.005949
251.028000	0.595216	0.005952
250.868000	0.595628	0.005956
250.709000	0.596065	0.005961
250.556000	0.596529	0.005965
250.413000	0.597001	0.005970
250.274000	0.597469	0.005975
250.140000	0.597925	0.005979
250.007000	0.598352	0.005984
249.878000	0.598744	0.005987
249.749000	0.599091	0.005991
249.616000	0.599483	0.005995
249.482000	0.599759	0.005998
249.345000	0.600004	0.006000
249.205000	0.600238	0.006002
249.064000	0.600452	0.006005
248.918000	0.600535	0.006005
248.768000	0.600732	0.006007
248.617000	0.600938	0.006009
248.466000	0.601138	0.006011
248.316000	0.601316	0.006013
248.165000	0.601453	0.006015
248.015000	0.601610	0.006016
247.863000	0.601747	0.006017
247.715000	0.601896	0.006019
247.568000	0.602071	0.006021
247.416000	0.602277	0.006023
247.260000	0.602540	0.006025
247.099000	0.602878	0.006029
246.942000	0.603247	0.006032
246.787000	0.603688	0.006037
246.636000	0.604178	0.006042
246.487000	0.604766	0.006048
246.339000	0.605358	0.006054
246.190000	0.605986	0.006060
246.041000	0.606455	0.006065
245.889000	0.607089	0.006071
245.740000	0.607706	0.006077
245.594000	0.608263	0.006083
245.448000	0.608752	0.006088
245.303000	0.609151	0.006092
245.159000	0.609435	0.006094
245.018000	0.609649	0.006096
244.874000	0.609782	0.006098
244.726000	0.609845	0.006098
244.579000	0.609836	0.006098
244.431000	0.609778	0.006098
244.286000	0.609729	0.006097
244.144000	0.609631	0.006096
244.007000	0.609512	0.006095
243.878000	0.609430	0.006094
243.755000	0.609389	0.006094
243.635000	0.609418	0.006094
243.514000	0.609503	0.006095
243.391000	0.609608	0.006096
243.265000	0.609815	0.006098
243.136000	0.610089	0.006101
243.004000	0.610408	0.006104
242.874000	0.610754	0.006108
242.740000	0.611078	0.006111
242.608000	0.611408	0.006114
242.474000	0.611754	0.006118
242.339000	0.612105	0.006121
242.202000	0.612460	0.006125
242.070000	0.612832	0.006128
241.938000	0.613172	0.006132
241.808000	0.613573	0.006136
241.685000	0.613947	0.006139
241.562000	0.614328	0.006143
241.441000	0.614720	0.006147
241.321000	0.615129	0.006151
241.206000	0.615579	0.006156
241.096000	0.616031	0.006160
240.988000	0.616484	0.006165
240.877000	0.616907	0.006169
240.768000	0.617322	0.006173
240.656000	0.617724	0.006177
240.543000	0.618133	0.006181
240.426000	0.618541	0.006185
240.307000	0.618972	0.006190
240.185000	0.619436	0.006194
240.063000	0.619947	0.006199
239.940000	0.620509	0.006205
239.815000	0.621087	0.006211
239.687000	0.621769	0.006218
239.558000	0.622533	0.006225
239.431000	0.623379	0.006234
239.302000	0.624279	0.006243
239.174000	0.625202	0.006252
239.044000	0.626135	0.006261
238.913000	0.627061	0.006271
238.786000	0.627974	0.006280
238.663000	0.628916	0.006289
238.543000	0.629752	0.006298
238.425000	0.630526	0.006305
238.309000	0.631198	0.006312
238.191000	0.631776	0.006318
238.071000	0.632209	0.006322
237.949000	0.632511	0.006325
237.824000	0.632664	0.006327
237.699000	0.632677	0.006327
237.575000	0.632561	0.006326
237.454000	0.632351	0.006324
237.339000	0.632079	0.006321
237.223000	0.631766	0.006318
237.106000	0.631465	0.006315
236.984000	0.631203	0.006312
236.862000	0.630997	0.006310
236.736000	0.630869	0.006309
236.612000	0.630815	0.006308
236.489000	0.630843	0.006308
236.366000	0.630860	0.006309
236.240000	0.631046	0.006310
236.114000	0.631311	0.006313
235.985000	0.631658	0.006317
235.854000	0.632083	0.006321
235.720000	0.632575	0.006326
235.588000	0.633125	0.006331
235.463000	0.633731	0.006337
235.343000	0.634575	0.006346
235.225000	0.635319	0.006353
235.106000	0.636091	0.006361
234.987000	0.636921	0.006369
234.868000	0.637838	0.006378
234.748000	0.638812	0.006388
234.626000	0.639846	0.006398
234.503000	0.640900	0.006409
234.377000	0.641967	0.006420
234.248000	0.643010	0.006430
234.119000	0.644052	0.006441
233.988000	0.645049	0.006450
233.857000	0.646019	0.006460
233.724000	0.646922	0.006469
233.589000	0.647817	0.006478
233.451000	0.648680	0.006487
233.313000	0.649537	0.006495
233.171000	0.650390	0.006504
233.028000	0.651264	0.006513
232.884000	0.652276	0.006523
232.737000	0.653254	0.006533
232.590000	0.654309	0.006543
232.443000	0.655455	0.006555
232.294000	0.656662	0.006567
232.147000	0.658007	0.006580
231.999000	0.659507	0.006595
231.850000	0.661092	0.006611
231.699000	0.662747	0.006627
231.549000	0.664423	0.006644
231.400000	0.666166	0.006662
231.251000	0.667940	0.006679
231.098000	0.669692	0.006697
230.942000	0.671408	0.006714
230.786000	0.673070	0.006731
230.633000	0.674676	0.006747
230.483000	0.676217	0.006762
230.335000	0.677705	0.006777
230.187000	0.679242	0.006792
230.036000	0.680612	0.006806
229.886000	0.681938	0.006819
229.737000	0.683255	0.006833
229.588000	0.684590	0.006846
229.439000	0.685930	0.006859
229.290000	0.687313	0.006873
229.142000	0.688731	0.006887
228.998000	0.690156	0.006902
228.856000	0.691623	0.006916
228.712000	0.693096	0.006931
228.570000	0.694642	0.006946
228.424000	0.696222	0.006962
228.272000	0.697823	0.006978
228.121000	0.699443	0.006994
227.965000	0.701075	0.007011
227.811000	0.702729	0.007027
227.658000	0.704449	0.007044
227.505000	0.706192	0.007062
227.351000	0.707994	0.007080
227.198000	0.709875	0.007099
227.046000	0.711862	0.007119
226.893000	0.713866	0.007139
226.745000	0.715937	0.007159
226.600000	0.718040	0.007180
226.458000	0.720175	0.007202
226.314000	0.722324	0.007223
226.170000	0.724508	0.007245
226.024000	0.726645	0.007266
225.872000	0.728750	0.007288
225.716000	0.730816	0.007308
225.558000	0.732863	0.007329
225.396000	0.734855	0.007349
225.233000	0.736902	0.007369
225.067000	0.738988	0.007390
224.904000	0.741114	0.007411
