Temperature	Strain_p	Strain
303.712000	0.472153	0.004722
303.713000	0.472153	0.004722
303.714000	0.472185	0.004722
303.714000	0.472283	0.004723
303.713000	0.472434	0.004724
303.710000	0.472645	0.004726
303.703000	0.472870	0.004729
303.693000	0.473120	0.004731
303.679000	0.473364	0.004734
303.666000	0.473580	0.004736
303.656000	0.473786	0.004738
303.650000	0.473973	0.004740
303.647000	0.474122	0.004741
303.642000	0.474255	0.004743
303.638000	0.474363	0.004744
303.635000	0.474438	0.004744
303.632000	0.474480	0.004745
303.623000	0.474511	0.004745
303.608000	0.474520	0.004745
303.589000	0.474501	0.004745
303.562000	0.474385	0.004744
303.533000	0.474303	0.004743
303.508000	0.474193	0.004742
303.483000	0.474056	0.004741
303.455000	0.473928	0.004739
303.429000	0.473794	0.004738
303.404000	0.473662	0.004737
303.380000	0.473551	0.004736
303.355000	0.473472	0.004735
303.333000	0.473416	0.004734
303.307000	0.473378	0.004734
303.276000	0.473385	0.004734
303.247000	0.473427	0.004734
303.220000	0.473513	0.004735
303.194000	0.473649	0.004736
303.172000	0.473822	0.004738
303.154000	0.474004	0.004740
303.136000	0.474170	0.004742
303.113000	0.474330	0.004743
303.097000	0.474401	0.004744
303.081000	0.474544	0.004745
303.060000	0.474612	0.004746
303.032000	0.474637	0.004746
303.000000	0.474595	0.004746
302.965000	0.474544	0.004745
302.928000	0.474466	0.004745
302.894000	0.474343	0.004743
302.859000	0.474183	0.004742
302.824000	0.473975	0.004740
302.791000	0.473722	0.004737
302.758000	0.473433	0.004734
302.723000	0.473098	0.004731
302.687000	0.472742	0.004727
302.654000	0.472381	0.004724
302.618000	0.472000	0.004720
302.579000	0.471621	0.004716
302.537000	0.471266	0.004713
302.496000	0.470947	0.004709
302.454000	0.470574	0.004706
302.415000	0.470348	0.004703
302.379000	0.470205	0.004702
302.345000	0.470152	0.004702
302.313000	0.470269	0.004703
302.281000	0.470391	0.004704
302.254000	0.470571	0.004706
302.227000	0.470777	0.004708
302.198000	0.471017	0.004710
302.171000	0.471252	0.004713
302.139000	0.471466	0.004715
302.103000	0.471640	0.004716
302.064000	0.471758	0.004718
302.017000	0.471830	0.004718
301.966000	0.471843	0.004718
301.912000	0.471790	0.004718
301.859000	0.471701	0.004717
301.805000	0.471539	0.004715
301.750000	0.471325	0.004713
301.694000	0.471047	0.004710
301.642000	0.470811	0.004708
301.591000	0.470570	0.004706
301.544000	0.470347	0.004703
301.505000	0.470133	0.004701
301.471000	0.469964	0.004700
301.441000	0.469847	0.004698
301.410000	0.469766	0.004698
301.374000	0.469703	0.004697
301.335000	0.469654	0.004697
301.291000	0.469649	0.004696
301.243000	0.469670	0.004697
301.189000	0.469697	0.004697
301.127000	0.469734	0.004697
301.056000	0.469793	0.004698
300.980000	0.469849	0.004698
300.901000	0.469903	0.004699
300.819000	0.469967	0.004700
300.743000	0.470025	0.004700
300.671000	0.470150	0.004702
300.600000	0.470178	0.004702
300.530000	0.470194	0.004702
300.464000	0.470194	0.004702
300.398000	0.470182	0.004702
300.333000	0.470236	0.004702
300.267000	0.470209	0.004702
300.202000	0.470130	0.004701
300.135000	0.470003	0.004700
300.069000	0.469802	0.004698
300.002000	0.469570	0.004696
299.932000	0.469255	0.004693
299.860000	0.468952	0.004690
299.786000	0.468641	0.004686
299.709000	0.468332	0.004683
299.631000	0.468026	0.004680
299.550000	0.467751	0.004678
299.468000	0.467498	0.004675
299.386000	0.467379	0.004674
299.304000	0.467249	0.004672
299.223000	0.467173	0.004672
299.143000	0.467156	0.004672
299.063000	0.467231	0.004672
298.983000	0.467353	0.004674
298.906000	0.467565	0.004676
298.831000	0.467775	0.004678
298.763000	0.468002	0.004680
298.693000	0.468225	0.004682
298.621000	0.468432	0.004684
298.546000	0.468615	0.004686
298.469000	0.468786	0.004688
298.389000	0.468931	0.004689
298.302000	0.469059	0.004691
298.217000	0.469155	0.004692
298.130000	0.469227	0.004692
298.041000	0.469247	0.004692
297.950000	0.469455	0.004695
297.856000	0.469402	0.004694
297.756000	0.469287	0.004693
297.653000	0.469143	0.004691
297.546000	0.468988	0.004690
297.436000	0.468836	0.004688
297.324000	0.468687	0.004687
297.208000	0.468594	0.004686
297.091000	0.468460	0.004685
296.974000	0.468340	0.004683
296.853000	0.468235	0.004682
296.729000	0.468167	0.004682
296.603000	0.468093	0.004681
296.476000	0.468034	0.004680
296.349000	0.467989	0.004680
296.220000	0.467952	0.004680
296.092000	0.467925	0.004679
295.966000	0.467907	0.004679
295.843000	0.467890	0.004679
295.721000	0.467884	0.004679
295.600000	0.467826	0.004678
295.474000	0.467821	0.004678
295.341000	0.467850	0.004679
295.204000	0.467896	0.004679
295.064000	0.467923	0.004679
294.923000	0.467987	0.004680
294.781000	0.468138	0.004681
294.641000	0.468170	0.004682
294.507000	0.468152	0.004682
294.375000	0.468070	0.004681
294.247000	0.467874	0.004679
294.121000	0.467642	0.004676
294.001000	0.467364	0.004674
293.888000	0.467051	0.004671
293.783000	0.466723	0.004667
293.685000	0.466397	0.004664
293.594000	0.466086	0.004661
293.506000	0.465809	0.004658
293.419000	0.465520	0.004655
293.326000	0.465367	0.004654
293.230000	0.465251	0.004653
293.128000	0.465210	0.004652
293.017000	0.465234	0.004652
292.900000	0.465326	0.004653
292.779000	0.465476	0.004655
292.662000	0.465691	0.004657
292.545000	0.465884	0.004659
292.430000	0.466084	0.004661
292.315000	0.466279	0.004663
292.199000	0.466466	0.004665
292.079000	0.466569	0.004666
291.960000	0.466633	0.004666
291.840000	0.466637	0.004666
291.718000	0.466589	0.004666
291.598000	0.466487	0.004665
291.480000	0.466321	0.004663
291.362000	0.466109	0.004661
291.242000	0.465999	0.004660
291.120000	0.465750	0.004658
290.998000	0.465486	0.004655
290.877000	0.465240	0.004652
290.759000	0.465019	0.004650
290.641000	0.464825	0.004648
290.524000	0.464701	0.004647
290.406000	0.464559	0.004646
290.286000	0.464551	0.004646
290.167000	0.464585	0.004646
290.048000	0.464648	0.004646
289.931000	0.464750	0.004648
289.815000	0.464858	0.004649
289.699000	0.464967	0.004650
289.585000	0.465070	0.004651
289.465000	0.465161	0.004652
289.342000	0.465243	0.004652
289.215000	0.465331	0.004653
289.087000	0.465450	0.004655
288.959000	0.465521	0.004655
288.829000	0.465527	0.004655
288.706000	0.465553	0.004656
288.586000	0.465558	0.004656
288.468000	0.465555	0.004656
288.351000	0.465565	0.004656
288.238000	0.465445	0.004654
288.124000	0.465367	0.004654
288.007000	0.465260	0.004653
287.891000	0.465110	0.004651
287.779000	0.464885	0.004649
287.671000	0.464626	0.004646
287.559000	0.464326	0.004643
287.446000	0.463986	0.004640
287.332000	0.463619	0.004636
287.218000	0.463236	0.004632
287.102000	0.462837	0.004628
286.984000	0.462437	0.004624
286.865000	0.462033	0.004620
286.745000	0.461645	0.004616
286.630000	0.461218	0.004612
286.519000	0.460879	0.004609
286.416000	0.460624	0.004606
286.316000	0.460448	0.004604
286.218000	0.460101	0.004601
286.119000	0.460110	0.004601
286.020000	0.460239	0.004602
285.919000	0.460442	0.004604
285.813000	0.460699	0.004607
285.704000	0.460974	0.004610
285.593000	0.461258	0.004613
285.478000	0.461544	0.004615
285.361000	0.461794	0.004618
285.238000	0.462022	0.004620
285.114000	0.462204	0.004622
284.985000	0.462345	0.004623
284.857000	0.462423	0.004624
284.728000	0.462449	0.004624
284.603000	0.462429	0.004624
284.478000	0.462380	0.004624
284.355000	0.462302	0.004623
284.236000	0.462213	0.004622
284.123000	0.462107	0.004621
284.013000	0.462030	0.004620
283.902000	0.462005	0.004620
283.791000	0.461922	0.004619
283.678000	0.461809	0.004618
283.565000	0.461679	0.004617
283.453000	0.461541	0.004615
283.346000	0.461358	0.004614
283.241000	0.461158	0.004612
283.138000	0.460978	0.004610
283.039000	0.460797	0.004608
282.938000	0.460653	0.004607
282.836000	0.460541	0.004605
282.731000	0.460461	0.004605
282.624000	0.460415	0.004604
282.519000	0.460254	0.004603
282.414000	0.460262	0.004603
282.310000	0.460279	0.004603
282.205000	0.460299	0.004603
282.101000	0.460324	0.004603
281.995000	0.460416	0.004604
281.888000	0.460403	0.004604
281.781000	0.460375	0.004604
281.673000	0.460316	0.004603
281.564000	0.460200	0.004602
281.450000	0.460047	0.004600
281.334000	0.459850	0.004599
281.219000	0.459631	0.004596
281.108000	0.459381	0.004594
281.004000	0.459112	0.004591
280.904000	0.458836	0.004588
280.808000	0.458563	0.004586
280.711000	0.458290	0.004583
280.616000	0.458034	0.004580
280.522000	0.457962	0.004580
280.424000	0.457763	0.004578
280.324000	0.457614	0.004576
280.224000	0.457539	0.004575
280.120000	0.457543	0.004575
280.015000	0.457506	0.004575
279.911000	0.457671	0.004577
279.808000	0.457909	0.004579
279.703000	0.458199	0.004582
279.599000	0.458514	0.004585
279.493000	0.458851	0.004589
279.394000	0.459143	0.004591
279.297000	0.459397	0.004594
279.202000	0.459616	0.004596
279.107000	0.459786	0.004598
279.009000	0.459921	0.004599
278.906000	0.459990	0.004600
278.797000	0.460025	0.004600
278.683000	0.460002	0.004600
278.569000	0.459887	0.004599
278.457000	0.459840	0.004598
278.344000	0.459766	0.004598
278.234000	0.459665	0.004597
278.124000	0.459572	0.004596
278.015000	0.459512	0.004595
277.907000	0.459485	0.004595
277.797000	0.459413	0.004594
277.682000	0.459341	0.004593
277.567000	0.459230	0.004592
277.451000	0.459071	0.004591
277.336000	0.458899	0.004589
277.222000	0.458701	0.004587
277.110000	0.458491	0.004585
276.999000	0.458296	0.004583
276.892000	0.458114	0.004581
276.788000	0.457959	0.004580
276.685000	0.457836	0.004578
276.583000	0.457756	0.004578
276.482000	0.457764	0.004578
276.384000	0.457788	0.004578
276.285000	0.457850	0.004579
276.184000	0.457955	0.004580
276.080000	0.458107	0.004581
275.971000	0.458292	0.004583
275.861000	0.458560	0.004586
275.749000	0.458780	0.004588
275.637000	0.458945	0.004589
275.525000	0.459054	0.004591
275.409000	0.459116	0.004591
275.292000	0.459046	0.004590
275.176000	0.458867	0.004589
275.057000	0.458590	0.004586
274.937000	0.458247	0.004582
274.814000	0.457841	0.004578
274.692000	0.457390	0.004574
274.569000	0.456901	0.004569
274.446000	0.456391	0.004564
274.322000	0.455882	0.004559
274.197000	0.455363	0.004554
274.069000	0.454856	0.004549
273.939000	0.454400	0.004544
273.810000	0.453976	0.004540
273.681000	0.453639	0.004536
273.553000	0.453368	0.004534
273.422000	0.453176	0.004532
273.292000	0.453030	0.004530
273.167000	0.452931	0.004529
273.043000	0.452842	0.004528
272.919000	0.452780	0.004528
272.793000	0.452745	0.004527
272.665000	0.452732	0.004527
272.534000	0.452733	0.004527
272.404000	0.452749	0.004527
272.274000	0.452759	0.004528
272.146000	0.452767	0.004528
272.020000	0.452608	0.004526
271.898000	0.452584	0.004526
271.777000	0.452544	0.004525
271.654000	0.452500	0.004525
271.536000	0.452465	0.004525
271.418000	0.452439	0.004524
271.301000	0.452560	0.004526
271.184000	0.452532	0.004525
271.066000	0.452506	0.004525
270.946000	0.452462	0.004525
270.823000	0.452411	0.004524
270.699000	0.452334	0.004523
270.575000	0.452281	0.004523
270.451000	0.452251	0.004523
270.327000	0.452247	0.004522
270.203000	0.452285	0.004523
270.083000	0.452358	0.004524
269.967000	0.452475	0.004525
269.853000	0.452637	0.004526
269.736000	0.452888	0.004529
269.616000	0.453146	0.004531
269.494000	0.453450	0.004535
269.368000	0.453797	0.004538
269.241000	0.454179	0.004542
269.114000	0.454573	0.004546
268.985000	0.454779	0.004548
268.857000	0.455101	0.004551
268.734000	0.455341	0.004553
268.609000	0.455460	0.004555
268.486000	0.455446	0.004554
268.362000	0.455283	0.004553
268.236000	0.454974	0.004550
268.107000	0.454540	0.004545
267.976000	0.453987	0.004540
267.842000	0.453345	0.004533
267.703000	0.452647	0.004526
267.558000	0.451886	0.004519
267.408000	0.451117	0.004511
267.258000	0.450345	0.004503
267.108000	0.449645	0.004496
266.958000	0.449016	0.004490
266.805000	0.448463	0.004485
266.650000	0.448014	0.004480
266.494000	0.447655	0.004477
266.334000	0.447459	0.004475
266.175000	0.447254	0.004473
266.016000	0.447137	0.004471
265.857000	0.447087	0.004471
265.703000	0.447060	0.004471
265.549000	0.447033	0.004470
265.396000	0.447046	0.004470
265.242000	0.447071	0.004471
265.089000	0.447113	0.004471
264.936000	0.447168	0.004472
264.784000	0.447233	0.004472
264.630000	0.447322	0.004473
264.476000	0.447407	0.004474
264.325000	0.447515	0.004475
264.176000	0.447593	0.004476
264.031000	0.447669	0.004477
263.888000	0.447750	0.004478
263.745000	0.447829	0.004478
263.604000	0.447913	0.004479
263.463000	0.447933	0.004479
263.323000	0.447964	0.004480
263.182000	0.447977	0.004480
263.041000	0.447965	0.004480
262.902000	0.447935	0.004479
262.762000	0.447897	0.004479
262.623000	0.447838	0.004478
262.486000	0.447778	0.004478
262.350000	0.447738	0.004477
262.215000	0.447742	0.004477
262.076000	0.447775	0.004478
261.937000	0.447840	0.004478
261.796000	0.447794	0.004478
261.651000	0.447897	0.004479
261.505000	0.448024	0.004480
261.360000	0.448167	0.004482
261.214000	0.448307	0.004483
261.067000	0.448442	0.004484
260.915000	0.448561	0.004486
260.763000	0.448635	0.004486
260.610000	0.448677	0.004487
260.459000	0.448669	0.004487
260.309000	0.448587	0.004486
260.160000	0.448459	0.004485
260.011000	0.448212	0.004482
259.863000	0.447880	0.004479
259.714000	0.447487	0.004475
259.565000	0.447052	0.004471
259.420000	0.446589	0.004466
259.276000	0.446135	0.004461
259.134000	0.445691	0.004457
258.994000	0.445218	0.004452
258.855000	0.444841	0.004448
258.717000	0.444528	0.004445
258.579000	0.444307	0.004443
258.440000	0.444179	0.004442
258.300000	0.444153	0.004442
258.159000	0.444377	0.004444
258.017000	0.444542	0.004445
257.876000	0.444752	0.004448
257.736000	0.444991	0.004450
257.597000	0.445218	0.004452
257.458000	0.445434	0.004454
257.322000	0.445636	0.004456
257.187000	0.445805	0.004458
257.051000	0.445946	0.004459
256.918000	0.446073	0.004461
256.788000	0.446174	0.004462
256.661000	0.446253	0.004463
256.534000	0.446283	0.004463
256.407000	0.446255	0.004463
256.278000	0.446210	0.004462
256.150000	0.446147	0.004461
256.024000	0.446061	0.004461
255.901000	0.445954	0.004460
255.780000	0.445821	0.004458
255.661000	0.445621	0.004456
255.541000	0.445438	0.004454
255.419000	0.445219	0.004452
255.295000	0.444966	0.004450
255.167000	0.444683	0.004447
255.038000	0.444381	0.004444
254.906000	0.444080	0.004441
254.776000	0.443801	0.004438
254.647000	0.443541	0.004435
254.519000	0.443342	0.004433
254.391000	0.443188	0.004432
254.268000	0.443068	0.004431
254.144000	0.443274	0.004433
254.019000	0.443249	0.004432
253.890000	0.443241	0.004432
253.759000	0.443280	0.004433
253.626000	0.443333	0.004433
253.491000	0.443410	0.004434
253.355000	0.443540	0.004435
253.219000	0.443677	0.004437
253.083000	0.443762	0.004438
252.949000	0.443777	0.004438
252.815000	0.443748	0.004437
252.679000	0.443646	0.004436
252.544000	0.443497	0.004435
252.408000	0.443288	0.004433
252.272000	0.443054	0.004431
252.134000	0.442806	0.004428
251.993000	0.442552	0.004426
251.850000	0.442316	0.004423
251.706000	0.442091	0.004421
251.558000	0.441750	0.004418
251.409000	0.441589	0.004416
251.258000	0.441494	0.004415
251.103000	0.441445	0.004414
250.947000	0.441443	0.004414
250.794000	0.441444	0.004414
250.647000	0.441544	0.004415
250.502000	0.441657	0.004417
250.361000	0.441811	0.004418
250.222000	0.441959	0.004420
250.083000	0.442108	0.004421
249.947000	0.442232	0.004422
249.810000	0.442324	0.004423
249.673000	0.442394	0.004424
249.537000	0.442440	0.004424
249.398000	0.442473	0.004425
249.257000	0.442480	0.004425
249.116000	0.442451	0.004425
248.975000	0.442384	0.004424
248.832000	0.442247	0.004422
248.687000	0.442113	0.004421
248.539000	0.441947	0.004419
248.392000	0.441748	0.004417
248.246000	0.441536	0.004415
248.100000	0.441358	0.004414
247.953000	0.441309	0.004413
247.806000	0.441134	0.004411
247.655000	0.440971	0.004410
247.505000	0.440819	0.004408
247.355000	0.440690	0.004407
247.206000	0.440585	0.004406
247.058000	0.440512	0.004405
246.911000	0.440449	0.004404
246.765000	0.440406	0.004404
246.620000	0.440379	0.004404
246.472000	0.440363	0.004404
246.324000	0.440343	0.004403
246.177000	0.440354	0.004404
246.026000	0.440435	0.004404
245.874000	0.440462	0.004405
245.721000	0.440481	0.004405
245.568000	0.440506	0.004405
245.415000	0.440518	0.004405
245.261000	0.440536	0.004405
245.108000	0.440611	0.004406
244.956000	0.440620	0.004406
244.805000	0.440586	0.004406
244.658000	0.440480	0.004405
244.512000	0.440298	0.004403
244.367000	0.440028	0.004400
244.224000	0.439684	0.004397
244.080000	0.439261	0.004393
243.936000	0.438794	0.004388
243.792000	0.438306	0.004383
243.648000	0.437822	0.004378
243.502000	0.437431	0.004374
243.356000	0.436970	0.004370
243.210000	0.436628	0.004366
243.064000	0.436393	0.004364
242.917000	0.436286	0.004363
242.769000	0.436321	0.004363
242.623000	0.436453	0.004365
242.476000	0.436674	0.004367
242.329000	0.436971	0.004370
242.181000	0.437282	0.004373
242.032000	0.437596	0.004376
241.882000	0.437918	0.004379
241.732000	0.438217	0.004382
241.581000	0.438471	0.004385
241.430000	0.438655	0.004387
241.280000	0.438739	0.004387
241.130000	0.438739	0.004387
240.984000	0.438652	0.004387
240.844000	0.438495	0.004385
240.708000	0.438267	0.004383
240.579000	0.437928	0.004379
240.453000	0.437600	0.004376
240.331000	0.437291	0.004373
240.210000	0.437000	0.004370
240.091000	0.436764	0.004368
239.970000	0.436610	0.004366
239.845000	0.436229	0.004362
239.720000	0.436173	0.004362
239.594000	0.436202	0.004362
239.467000	0.436267	0.004363
239.336000	0.436373	0.004364
239.203000	0.436547	0.004365
239.068000	0.436710	0.004367
238.932000	0.436901	0.004369
238.794000	0.437117	0.004371
238.659000	0.437379	0.004374
238.522000	0.437655	0.004377
238.384000	0.437932	0.004379
238.245000	0.438220	0.004382
238.108000	0.438568	0.004386
237.975000	0.438851	0.004389
237.843000	0.439112	0.004391
237.711000	0.439368	0.004394
237.578000	0.439607	0.004396
237.448000	0.439861	0.004399
237.318000	0.440250	0.004403
237.190000	0.440466	0.004405
237.065000	0.440598	0.004406
236.939000	0.440671	0.004407
236.809000	0.440674	0.004407
236.679000	0.440639	0.004406
236.547000	0.440475	0.004405
236.415000	0.440189	0.004402
236.282000	0.439889	0.004399
236.144000	0.439561	0.004396
236.010000	0.439200	0.004392
235.878000	0.438833	0.004388
235.749000	0.438466	0.004385
235.621000	0.438154	0.004382
235.496000	0.437835	0.004378
235.371000	0.437552	0.004376
235.246000	0.437326	0.004373
235.121000	0.437165	0.004372
234.996000	0.437078	0.004371
234.870000	0.437059	0.004371
234.744000	0.437034	0.004370
234.617000	0.437021	0.004370
234.487000	0.437004	0.004370
234.352000	0.436969	0.004370
234.213000	0.436865	0.004369
234.069000	0.436745	0.004367
233.924000	0.436599	0.004366
233.774000	0.436421	0.004364
233.621000	0.436214	0.004362
233.463000	0.435989	0.004360
233.306000	0.435757	0.004358
233.149000	0.435515	0.004355
232.996000	0.435272	0.004353
232.844000	0.435073	0.004351
232.694000	0.434943	0.004349
232.543000	0.434860	0.004349
232.391000	0.434849	0.004348
232.241000	0.434861	0.004349
232.088000	0.434909	0.004349
231.937000	0.435075	0.004351
231.786000	0.435313	0.004353
231.638000	0.435603	0.004356
231.489000	0.435919	0.004359
231.340000	0.436258	0.004363
231.193000	0.436602	0.004366
231.047000	0.436983	0.004370
230.902000	0.437375	0.004374
230.757000	0.437785	0.004378
230.612000	0.438244	0.004382
230.467000	0.438707	0.004387
230.320000	0.439188	0.004392
230.174000	0.439717	0.004397
230.028000	0.440275	0.004403
229.881000	0.440848	0.004408
229.733000	0.441427	0.004414
229.586000	0.441908	0.004419
