Time Load Crosshead Temperature Chamber Stress Strain 
0.060 76.720 0.00000 -3.90 77.978 20.075
2.000 16.401 -0.00228 -3.90 16.670 20.034
3.000 11.704 -0.00255 -3.90 11.896 20.037
4.000 9.693 -0.00270 -4.00 9.852 20.029
5.000 8.699 -0.00280 0.00 8.841 20.031
6.000 8.129 -0.00286 0.00 8.262 20.031
6.550 7.921 -0.00289 0.00 8.051 20.030
8.000 9.011 -0.00280 -4.20 9.159 20.028
9.000 10.559 -0.00271 -4.20 10.732 20.037
10.000 12.306 -0.00261 -4.20 12.508 20.028
11.000 14.284 -0.00252 -4.20 14.518 20.036
12.000 16.330 -0.00242 -4.20 16.598 20.038
13.000 18.590 -0.00232 -4.30 18.895 20.037
13.500 19.684 -0.00228 -4.30 20.007 20.038
14.630 20.137 -0.00227 -4.30 20.467 20.036
16.000 22.954 -0.00215 -4.40 23.330 20.041
17.000 25.522 -0.00206 -4.40 25.940 20.047
18.000 28.068 -0.00196 -4.40 28.529 20.044
19.000 30.648 -0.00186 -4.50 31.150 20.047
20.000 33.565 -0.00176 -4.60 34.115 20.060
21.000 36.580 -0.00166 -4.60 37.180 20.047
23.000 40.067 -0.00157 -4.70 40.724 20.060
25.000 45.038 -0.00141 -4.70 45.776 20.065
26.000 47.838 -0.00131 -4.80 48.623 20.058
27.000 51.054 -0.00121 -4.80 51.891 20.053
28.000 53.932 -0.00111 -4.90 54.817 20.069
29.000 57.134 -0.00102 -4.90 58.070 20.074
31.000 59.564 -0.00095 -4.90 60.540 20.071
32.000 59.923 -0.00096 -5.00 60.906 20.068
33.000 59.364 -0.00098 -5.00 60.338 20.074
34.000 59.527 -0.00099 -5.10 60.503 20.074
35.000 58.727 -0.00100 0.00 59.690 20.073
36.000 58.506 -0.00100 0.00 59.465 20.068
37.000 59.084 -0.00100 0.00 60.053 20.074
38.000 59.227 -0.00100 -5.30 60.198 20.071
39.000 59.757 -0.00100 -5.30 60.737 20.073
40.000 59.340 -0.00101 -5.40 60.313 20.071
41.000 59.380 -0.00102 -5.50 60.354 20.074
42.000 59.537 -0.00104 -5.50 60.513 20.077
43.000 59.090 -0.00106 -5.50 60.059 20.074
44.000 59.523 -0.00106 -5.60 60.499 20.074
45.000 59.318 -0.00108 -5.60 60.291 20.077
46.000 59.606 -0.00109 -5.60 60.584 20.078
47.000 59.444 -0.00111 -5.60 60.418 20.078
48.000 59.530 -0.00113 -5.60 60.506 20.081
49.000 59.528 -0.00115 -5.70 60.504 20.078
50.000 59.498 -0.00117 -5.70 60.474 20.078
51.000 58.970 -0.00118 -5.70 59.937 20.081
52.000 58.979 -0.00118 -5.70 59.946 20.084
53.000 59.198 -0.00118 -5.80 60.168 20.078
54.000 59.268 -0.00119 -5.80 60.240 20.078
55.000 59.218 -0.00119 -5.90 60.189 20.081
56.000 59.010 -0.00119 -6.00 59.977 20.078
57.000 59.515 -0.00120 -6.00 60.491 20.078
58.000 59.295 -0.00121 -6.00 60.267 20.081
59.000 59.552 -0.00123 -6.00 60.528 20.084
60.000 59.427 -0.00125 -6.10 60.402 20.080
61.000 59.463 -0.00126 -6.10 60.438 20.080
62.000 59.347 -0.00128 -6.10 60.320 20.083
63.000 59.307 -0.00129 -6.10 60.280 20.080
64.000 59.055 -0.00130 -6.10 60.023 20.080
65.000 58.641 -0.00130 -6.10 59.603 20.086
66.000 59.018 -0.00130 -6.20 59.986 20.077
67.000 59.130 -0.00130 0.00 60.099 20.083
68.000 59.330 -0.00130 0.00 60.303 20.083
69.000 58.338 -0.00130 0.00 59.295 20.086
70.000 58.463 -0.00129 -6.40 59.422 20.086
71.000 58.559 -0.00128 -6.40 59.519 20.089
72.000 58.938 -0.00127 -6.50 59.904 20.098
73.000 59.714 -0.00127 -6.60 60.693 20.093
74.000 59.714 -0.00128 -6.60 60.693 20.092
75.000 59.651 -0.00130 -6.60 60.629 20.093
76.000 59.568 -0.00132 -6.70 60.545 20.102
77.000 59.220 -0.00133 -6.70 60.191 20.090
78.000 59.475 -0.00135 -6.70 60.450 20.096
79.000 58.969 -0.00136 -6.80 59.936 20.093
80.000 59.115 -0.00136 -6.80 60.084 20.096
81.000 59.271 -0.00137 -6.90 60.242 20.090
82.000 59.355 -0.00138 -6.90 60.328 20.087
83.000 59.443 -0.00139 -6.90 60.417 20.088
84.000 59.469 -0.00141 -7.00 60.444 20.084
85.000 59.772 -0.00143 -7.00 60.752 20.100
86.000 59.751 -0.00146 -7.00 60.731 20.093
87.000 59.376 -0.00148 -7.00 60.350 20.096
88.000 59.280 -0.00150 -7.10 60.252 20.097
89.000 59.075 -0.00151 -7.10 60.043 20.093
90.000 58.320 -0.00151 -7.10 59.276 20.099
91.000 58.726 -0.00150 -7.20 59.689 20.099
92.000 58.735 -0.00149 -7.20 59.698 20.102
93.000 59.128 -0.00148 -7.20 60.097 20.096
94.000 59.486 -0.00148 -7.30 60.461 20.086
95.000 59.866 -0.00150 -7.30 60.847 20.093
96.000 59.584 -0.00152 0.00 60.561 20.099
97.000 59.104 -0.00154 0.00 60.073 20.089
98.000 59.287 -0.00154 0.00 60.259 20.087
99.000 58.875 -0.00154 0.00 59.840 20.093
100.000 59.221 -0.00154 -7.50 60.192 20.090
101.000 58.391 -0.00155 -7.50 59.348 20.086
102.000 58.408 -0.00154 -7.50 59.366 20.077
103.000 58.664 -0.00153 -7.60 59.626 20.076
104.000 59.074 -0.00152 -7.60 60.042 20.090
105.000 59.883 -0.00152 -7.70 60.865 20.098
106.000 59.966 -0.00154 -7.70 60.949 20.089
107.000 59.586 -0.00157 -7.70 60.563 20.092
108.000 59.425 -0.00159 -7.80 60.399 20.086
109.000 59.268 -0.00160 -7.80 60.239 20.081
110.000 59.388 -0.00162 -7.80 60.361 20.089
111.000 58.288 -0.00162 -7.80 59.244 20.077
112.000 58.575 -0.00161 -8.00 59.535 20.077
113.000 58.899 -0.00161 -8.00 59.864 20.078
114.000 58.957 -0.00160 -8.00 59.923 20.080
115.000 59.423 -0.00160 -8.00 60.397 20.096
116.000 59.731 -0.00161 -8.00 60.711 20.091
117.000 59.913 -0.00163 -8.10 60.895 20.083
118.000 59.703 -0.00166 -8.10 60.681 20.090
119.000 59.703 -0.00169 -8.10 60.682 20.093
120.000 59.047 -0.00171 -8.10 60.015 20.090
121.000 59.170 -0.00171 -8.10 60.140 20.093
122.000 59.218 -0.00172 -8.20 60.189 20.090
123.000 58.800 -0.00172 -8.20 59.764 20.084
124.000 58.934 -0.00172 -8.20 59.900 20.081
125.000 57.402 -0.00171 -8.30 58.343 20.096
126.000 58.046 -0.00167 -8.50 58.998 20.093
127.000 59.192 -0.00165 -8.50 60.163 20.081
128.000 59.650 -0.00165 -8.60 60.628 20.075
129.000 60.002 -0.00167 -8.60 60.986 20.084
130.000 59.797 -0.00169 -8.60 60.777 20.088
131.000 59.674 -0.00172 -8.60 60.653 20.081
132.000 59.497 -0.00174 -8.60 60.472 20.091
133.000 58.849 -0.00175 -8.60 59.813 20.081
134.000 59.403 -0.00175 -8.70 60.377 20.081
135.000 59.212 -0.00177 -8.70 60.183 20.081
136.000 58.267 -0.00177 -8.70 59.223 20.099
137.000 59.005 -0.00176 -8.70 59.972 20.083
138.000 59.131 -0.00176 -8.80 60.101 20.077
139.000 59.481 -0.00176 -8.80 60.457 20.080
140.000 59.713 -0.00178 -8.90 60.692 20.075
141.000 59.166 -0.00179 -8.90 60.136 20.084
142.000 59.337 -0.00180 -8.90 60.310 20.086
143.000 59.006 -0.00180 -9.00 59.973 20.077
144.000 58.693 -0.00181 -9.00 59.655 20.089
145.000 57.876 -0.00180 -9.00 58.825 20.090
146.000 57.998 -0.00177 -9.10 58.949 20.098
147.000 58.963 -0.00175 -9.30 59.930 20.083
148.000 59.124 -0.00174 -9.30 60.094 20.083
149.000 59.746 -0.00175 -9.40 60.726 20.090
150.000 60.002 -0.00176 -9.40 60.986 20.076
151.000 59.899 -0.00179 -9.40 60.881 20.077
152.000 60.176 -0.00183 -9.40 61.163 20.074
153.000 59.052 -0.00185 -9.40 60.020 20.079
154.000 59.368 -0.00185 -9.40 60.341 20.080
155.000 59.434 -0.00187 -9.50 60.408 20.077
156.000 58.881 -0.00188 -9.50 59.846 20.092
157.000 59.397 -0.00188 -9.50 60.371 20.080
158.000 58.623 -0.00189 -9.60 59.584 20.089
159.000 58.617 -0.00189 -9.70 59.578 20.083
160.000 59.310 -0.00189 -9.70 60.282 20.080
161.000 59.032 -0.00189 -9.70 60.000 20.077
162.000 59.192 -0.00189 -9.70 60.162 20.080
163.000 59.360 -0.00189 -9.70 60.333 20.086
164.000 59.228 -0.00190 -9.80 60.199 20.084
165.000 59.739 -0.00191 -9.80 60.718 20.087
166.000 59.033 -0.00193 -9.80 60.001 20.090
167.000 59.283 -0.00194 -9.90 60.255 20.093
168.000 59.521 -0.00195 -9.90 60.497 20.090
169.000 59.546 -0.00198 -9.90 60.523 20.078
170.000 59.141 -0.00199 -9.90 60.110 20.090
171.000 58.946 -0.00199 -10.00 59.912 20.087
172.000 58.295 -0.00199 -10.00 59.251 20.096
173.000 58.313 -0.00198 -10.10 59.269 20.081
174.000 58.115 -0.00196 -10.10 59.068 20.087
175.000 58.855 -0.00194 -10.10 59.819 20.084
176.000 59.148 -0.00193 -10.20 60.118 20.078
177.000 59.351 -0.00193 -10.20 60.324 20.100
178.000 59.756 -0.00194 -10.30 60.735 20.087
179.000 59.209 -0.00195 -10.30 60.180 20.097
180.000 59.747 -0.00196 -10.30 60.727 20.090
181.000 59.713 -0.00199 -10.40 60.692 20.100
182.000 59.524 -0.00201 -10.40 60.500 20.090
183.000 59.422 -0.00203 -10.40 60.396 20.087
184.000 58.596 -0.00203 -10.40 59.556 20.090
185.000 58.720 -0.00203 -10.50 59.682 20.087
186.000 59.245 -0.00203 -10.50 60.216 20.084
187.000 60.004 -0.00203 -10.60 60.988 20.102
188.000 58.428 -0.00205 -10.60 59.386 20.081
189.000 57.561 -0.00204 -10.60 58.504 20.078
190.000 58.595 -0.00200 -10.70 59.556 20.080
191.000 59.041 -0.00199 -10.80 60.009 20.093
192.000 59.778 -0.00199 -10.80 60.758 20.089
193.000 59.219 -0.00200 -10.90 60.190 20.099
194.000 59.310 -0.00200 -10.90 60.282 20.102
195.000 59.804 -0.00202 -10.90 60.785 20.077
196.000 59.676 -0.00204 -11.00 60.654 20.093
197.000 59.626 -0.00207 -11.00 60.603 20.093
198.000 59.907 -0.00209 -11.00 60.889 20.093
199.000 58.924 -0.00211 -11.00 59.890 20.096
200.000 58.972 -0.00211 -11.00 59.939 20.089
201.000 59.668 -0.00211 -11.00 60.647 20.084
202.000 59.108 -0.00213 -11.10 60.077 20.093
203.000 59.509 -0.00214 -11.10 60.484 20.081
204.000 58.749 -0.00215 -11.10 59.713 20.092
205.000 58.726 -0.00215 -11.10 59.689 20.071
206.000 58.617 -0.00215 -11.20 59.578 20.089
207.000 58.393 -0.00213 -11.20 59.351 20.089
208.000 58.982 -0.00213 -11.20 59.949 20.092
209.000 58.953 -0.00212 -11.30 59.920 20.086
210.000 59.455 -0.00212 -11.30 60.429 20.071
211.000 59.438 -0.00213 -11.40 60.412 20.086
212.000 59.644 -0.00213 -11.40 60.622 20.086
213.000 59.590 -0.00216 -11.40 60.567 20.091
214.000 59.224 -0.00217 -11.50 60.195 20.070
215.000 59.530 -0.00218 -11.50 60.506 20.083
216.000 58.692 -0.00219 -11.50 59.655 20.077
217.000 59.187 -0.00219 -11.50 60.157 20.080
218.000 59.171 -0.00219 -11.60 60.142 20.083
219.000 59.358 -0.00219 -11.60 60.331 20.083
220.000 59.388 -0.00220 -11.60 60.362 20.086
221.000 59.338 -0.00222 -11.60 60.311 20.083
222.000 59.423 -0.00222 -11.60 60.398 20.083
223.000 59.608 -0.00225 -11.70 60.585 20.100
224.000 59.475 -0.00227 -11.70 60.451 20.086
225.000 58.754 -0.00228 -11.70 59.718 20.085
226.000 58.403 -0.00228 -11.80 59.361 20.080
227.000 58.991 -0.00227 -11.80 59.958 20.080
228.000 58.611 -0.00227 -11.80 59.572 20.086
229.000 58.634 -0.00226 -11.90 59.595 20.080
230.000 59.284 -0.00226 -11.90 60.256 20.089
231.000 59.175 -0.00226 -11.90 60.145 20.089
232.000 59.961 -0.00226 -12.00 60.944 20.087
233.000 59.772 -0.00228 -12.00 60.752 20.086
234.000 59.694 -0.00230 -12.00 60.673 20.089
235.000 59.032 -0.00232 -12.00 59.999 20.092
236.000 59.007 -0.00232 -12.00 59.974 20.089
237.000 59.017 -0.00232 -12.10 59.985 20.089
238.000 59.103 -0.00233 -12.10 60.072 20.086
239.000 59.778 -0.00234 -12.10 60.758 20.058
240.000 58.142 -0.00235 -12.10 59.095 20.089
241.000 58.320 -0.00234 -12.20 59.276 20.089
242.000 57.954 -0.00233 -12.20 58.904 20.089
243.000 57.382 -0.00228 -12.20 58.323 20.097
244.000 58.695 -0.00224 -12.40 59.657 20.061
245.000 58.694 -0.00223 -12.40 59.656 20.046
246.000 58.135 -0.00220 -12.40 59.088 20.081
247.000 59.055 -0.00218 -12.50 60.023 20.058
248.000 59.444 -0.00218 -12.50 60.418 20.058
249.000 59.962 -0.00219 -12.60 60.945 20.067
250.000 60.212 -0.00222 -12.60 61.200 20.053
251.000 59.260 -0.00224 -12.60 60.232 20.064
252.000 59.785 -0.00226 -12.70 60.765 20.075
253.000 59.837 -0.00229 -12.70 60.818 20.053
254.000 58.991 -0.00230 -12.70 59.959 20.062
255.000 59.835 -0.00231 -12.70 60.816 20.047
256.000 59.115 -0.00233 -12.80 60.085 20.066
257.000 59.468 -0.00233 -12.80 60.443 20.072
258.000 59.298 -0.00235 -12.80 60.270 20.066
259.000 59.329 -0.00236 -12.90 60.302 20.074
260.000 59.413 -0.00238 -12.90 60.387 20.065
261.000 58.945 -0.00239 -12.90 59.912 20.063
262.000 59.145 -0.00239 -13.00 60.115 20.058
263.000 58.923 -0.00239 -13.00 59.889 20.050
264.000 59.068 -0.00239 -13.00 60.036 20.060
265.000 59.283 -0.00239 -13.10 60.255 20.078
266.000 58.591 -0.00240 -13.10 59.552 20.063
267.000 58.970 -0.00239 -13.10 59.936 20.063
268.000 58.341 -0.00239 -13.20 59.297 20.066
269.000 58.719 -0.00238 -13.20 59.681 20.072
270.000 59.095 -0.00237 -13.30 60.064 20.059
271.000 58.700 -0.00237 -13.40 59.663 20.072
272.000 59.339 -0.00237 -13.40 60.312 20.063
273.000 59.518 -0.00237 -13.40 60.494 20.059
274.000 59.761 -0.00238 -13.40 60.741 20.075
275.000 59.936 -0.00240 -13.40 60.918 20.071
276.000 59.648 -0.00244 -13.40 60.626 20.081
277.000 59.965 -0.00247 -13.40 60.948 20.072
278.000 59.786 -0.00250 -13.40 60.766 20.072
279.000 58.282 -0.00252 -13.40 59.237 20.059
280.000 58.391 -0.00251 -13.50 59.348 20.061
281.000 58.716 -0.00250 -13.50 59.679 20.071
282.000 58.969 -0.00249 -13.60 59.936 20.062
283.000 58.840 -0.00249 -13.70 59.804 20.068
284.000 58.600 -0.00248 -13.70 59.561 20.058
285.000 59.352 -0.00247 -13.70 60.326 20.080
286.000 59.229 -0.00247 -13.80 60.200 20.077
287.000 59.033 -0.00247 -13.80 60.001 20.080
288.000 58.600 -0.00247 -13.80 59.560 20.080
289.000 59.082 -0.00247 -13.80 60.051 20.077
290.000 59.623 -0.00247 -13.90 60.601 20.074
291.000 60.170 -0.00248 -13.90 61.156 20.086
292.000 60.406 -0.00252 -13.90 61.397 20.083
293.000 59.068 -0.00254 -13.90 60.037 20.086
294.000 59.212 -0.00254 -14.00 60.183 20.083
295.000 58.749 -0.00255 -14.00 59.712 20.086
296.000 58.300 -0.00254 -14.00 59.256 20.086
297.000 59.240 -0.00254 -14.10 60.211 20.083
298.000 58.581 -0.00254 -14.10 59.541 20.092
299.000 59.102 -0.00253 -14.10 60.071 20.087
300.000 59.297 -0.00254 -14.20 60.269 20.083
301.000 58.769 -0.00254 -14.20 59.733 20.090
302.000 59.312 -0.00254 -14.30 60.285 20.084
303.000 58.923 -0.00254 -14.30 59.889 20.087
304.000 59.182 -0.00254 -14.30 60.152 20.090
305.000 59.148 -0.00254 -14.30 60.118 20.087
306.000 58.713 -0.00254 -14.40 59.676 20.084
307.000 59.472 -0.00254 -14.40 60.447 20.088
308.000 60.064 -0.00255 -14.40 61.049 20.087
309.000 59.447 -0.00257 -14.40 60.422 20.084
310.000 59.799 -0.00260 -14.40 60.779 20.081
311.000 59.148 -0.00262 -14.50 60.118 20.082
312.000 58.724 -0.00263 -14.50 59.687 20.091
313.000 59.504 -0.00263 -14.50 60.480 20.084
314.000 58.730 -0.00263 -14.50 59.693 20.090
315.000 58.277 -0.00262 -14.60 59.232 20.087
316.000 58.042 -0.00261 -14.60 58.993 20.088
317.000 57.252 -0.00256 -14.70 58.191 20.081
318.000 58.539 -0.00251 -14.90 59.499 20.087
319.000 59.118 -0.00250 -14.90 60.088 20.087
320.000 59.385 -0.00250 -14.90 60.359 20.084
321.000 60.269 -0.00251 -14.90 61.257 20.089
322.000 59.970 -0.00255 -14.90 60.954 20.090
323.000 59.480 -0.00257 -15.00 60.456 20.086
324.000 59.807 -0.00260 -15.00 60.787 20.087
325.000 59.406 -0.00262 -15.00 60.380 20.087
326.000 59.299 -0.00263 -15.00 60.271 20.087
327.000 59.070 -0.00265 -15.10 60.038 20.080
328.000 58.335 -0.00265 -15.10 59.292 20.090
329.000 58.816 -0.00264 -15.20 59.780 20.083
330.000 58.794 -0.00263 -15.20 59.758 20.086
331.000 59.452 -0.00263 -15.20 60.427 20.090
332.000 59.493 -0.00264 -15.30 60.469 20.086
333.000 59.576 -0.00264 -15.30 60.553 20.090
334.000 59.725 -0.00266 -15.30 60.704 20.086
335.000 60.001 -0.00269 -15.40 60.984 20.083
336.000 59.046 -0.00272 -15.40 60.015 20.089
337.000 58.899 -0.00272 -15.40 59.864 20.083
338.000 59.088 -0.00272 -15.40 60.057 20.089
339.000 59.312 -0.00273 -15.40 60.285 20.086
340.000 59.254 -0.00274 -15.40 60.226 20.086
341.000 58.720 -0.00275 -15.50 59.683 20.086
342.000 59.151 -0.00275 -15.50 60.121 20.086
343.000 59.040 -0.00275 -15.50 60.008 20.089
344.000 59.135 -0.00275 -15.60 60.105 20.086
345.000 57.903 -0.00274 -15.60 58.852 20.092
346.000 58.349 -0.00272 -15.60 59.305 20.085
347.000 59.070 -0.00271 -15.80 60.038 20.089
348.000 58.647 -0.00271 -15.80 59.609 20.086
349.000 59.383 -0.00270 -15.80 60.356 20.090
350.000 59.316 -0.00271 -15.90 60.289 20.092
351.000 58.930 -0.00271 -15.90 59.896 20.092
352.000 59.310 -0.00271 -15.90 60.282 20.087
353.000 58.658 -0.00271 -15.90 59.619 20.092
354.000 57.961 -0.00270 -15.90 58.911 20.095
355.000 58.950 -0.00269 -16.00 59.917 20.086
356.000 59.221 -0.00269 -16.10 60.192 20.090
357.000 59.690 -0.00269 -16.10 60.668 20.090
358.000 59.168 -0.00270 -16.10 60.138 20.090
359.000 59.663 -0.00271 -16.20 60.641 20.090
360.000 59.836 -0.00274 -16.20 60.817 20.093
361.000 58.446 -0.00275 -16.20 59.404 20.094
362.000 58.679 -0.00274 -16.30 59.641 20.090
363.000 59.771 -0.00274 -16.30 60.751 20.090
364.000 60.202 -0.00276 -16.40 61.189 20.090
365.000 59.853 -0.00280 -16.40 60.834 20.088
366.000 58.851 -0.00281 -16.40 59.816 20.093
367.000 59.239 -0.00281 -16.40 60.210 20.092
368.000 59.066 -0.00282 -16.50 60.034 20.094
369.000 59.788 -0.00283 -16.50 60.768 20.088
370.000 59.346 -0.00286 -16.50 60.319 20.091
371.000 59.344 -0.00287 -16.50 60.317 20.093
372.000 59.260 -0.00289 -16.50 60.231 20.087
373.000 59.094 -0.00289 -16.50 60.063 20.088
374.000 59.425 -0.00290 -16.60 60.400 20.086
375.000 58.964 -0.00291 -16.60 59.931 20.092
376.000 59.108 -0.00291 -16.60 60.077 20.096
377.000 58.981 -0.00291 -16.60 59.948 20.093
378.000 59.404 -0.00292 -16.60 60.378 20.089
379.000 58.955 -0.00293 -16.60 59.921 20.096
380.000 58.878 -0.00293 -16.70 59.843 20.092
381.000 59.076 -0.00293 -16.70 60.044 20.092
382.000 57.943 -0.00293 -16.70 58.893 20.101
383.000 58.256 -0.00291 -16.80 59.211 20.095
384.000 57.790 -0.00288 -16.80 58.738 20.099
385.000 58.616 -0.00285 -16.80 59.577 20.102
386.000 59.098 -0.00284 -16.90 60.067 20.099
387.000 59.407 -0.00284 -16.90 60.381 20.102
388.000 59.756 -0.00285 -17.00 60.735 20.093
389.000 59.581 -0.00286 -17.00 60.558 20.098
390.000 59.544 -0.00287 -17.00 60.520 20.092
391.000 59.855 -0.00289 -17.00 60.836 20.090
392.000 58.855 -0.00290 -17.10 59.820 20.090
393.000 59.175 -0.00290 -17.10 60.145 20.090
394.000 59.140 -0.00290 -17.10 60.110 20.097
395.000 59.325 -0.00291 -17.20 60.298 20.099
396.000 59.905 -0.00293 -17.20 60.887 20.092
397.000 59.424 -0.00296 -17.20 60.398 20.099
398.000 59.319 -0.00296 -17.20 60.292 20.096
399.000 58.707 -0.00297 -17.20 59.669 20.102
400.000 59.142 -0.00297 -17.20 60.112 20.096
401.000 58.000 -0.00297 -17.20 58.951 20.102
402.000 57.973 -0.00294 -17.30 58.923 20.100
403.000 58.807 -0.00293 -17.40 59.772 20.100
404.000 58.800 -0.00292 -17.40 59.764 20.100
405.000 59.560 -0.00292 -17.50 60.537 20.103
406.000 59.645 -0.00293 -17.50 60.623 20.103
407.000 59.575 -0.00294 -17.50 60.551 20.106
408.000 59.784 -0.00296 -17.60 60.764 20.103
409.000 58.963 -0.00298 -17.60 59.930 20.106
410.000 59.186 -0.00298 -17.60 60.157 20.102
411.000 59.761 -0.00300 -17.60 60.741 20.103
412.000 58.868 -0.00301 -17.70 59.834 20.099
413.000 59.461 -0.00301 -17.70 60.436 20.106
414.000 59.499 -0.00303 -17.70 60.475 20.103
415.000 59.473 -0.00304 -17.70 60.449 20.102
416.000 59.463 -0.00306 -17.70 60.438 20.106
417.000 58.115 -0.00307 -17.70 59.068 20.106
418.000 58.585 -0.00306 -17.80 59.546 20.103
419.000 58.096 -0.00304 -17.80 59.049 20.106
420.000 58.516 -0.00301 -17.90 59.475 20.105
421.000 59.191 -0.00300 -17.90 60.162 20.109
422.000 59.686 -0.00301 -17.90 60.664 20.105
423.000 60.232 -0.00302 -18.00 61.220 20.105
424.000 60.079 -0.00306 -18.00 61.064 20.105
425.000 59.543 -0.00309 -18.00 60.519 20.100
426.000 58.055 -0.00309 -18.00 59.007 20.109
427.000 58.372 -0.00307 -18.00 59.329 20.112
428.000 57.925 -0.00306 -18.00 58.875 20.114
429.000 58.084 -0.00301 -18.10 59.036 20.118
430.000 58.664 -0.00298 -18.20 59.626 20.109
431.000 59.295 -0.00298 -18.20 60.267 20.108
432.000 59.595 -0.00298 -18.30 60.572 20.109
433.000 59.865 -0.00300 -18.30 60.846 20.099
434.000 59.951 -0.00302 -18.30 60.934 20.109
435.000 59.896 -0.00305 -18.40 60.878 20.108
436.000 59.492 -0.00307 -18.40 60.468 20.109
437.000 59.395 -0.00310 -18.40 60.368 20.111
438.000 59.661 -0.00311 -18.40 60.639 20.105
439.000 59.490 -0.00313 -18.40 60.466 20.111
440.000 58.798 -0.00314 -18.40 59.762 20.109
441.000 59.356 -0.00314 -18.40 60.329 20.106
442.000 59.177 -0.00315 -18.40 60.147 20.111
443.000 59.168 -0.00316 -18.40 60.138 20.108
444.000 59.501 -0.00317 -18.50 60.476 20.108
445.000 59.181 -0.00319 -18.50 60.151 20.111
446.000 59.436 -0.00320 -18.50 60.411 20.105
447.000 59.384 -0.00321 -18.50 60.357 20.111
448.000 58.725 -0.00322 -18.60 59.688 20.111
449.000 58.748 -0.00322 -18.60 59.711 20.105
450.000 58.319 -0.00322 -18.60 59.275 20.114
451.000 58.857 -0.00320 -18.60 59.822 20.111
452.000 59.074 -0.00320 -18.60 60.043 20.105
